Wavelength	Smoothed_1	Smoothed_2	Smoothed_3	Smoothed_4	Smoothed_5	Smoothed_6	Smoothed_7	Smoothed_8	Smoothed_9	Smoothed_10	Smoothed_11	Smoothed_12	Smoothed_13	Smoothed_14	Smoothed_15	Smoothed_16	Smoothed_17	Smoothed_18	Smoothed_19	Smoothed_20
500.000000	4.751476	1.706084	5.307587	7.690902	3.102629	0.463238	7.450993	6.327972	9.470105	2.668944	3.535699	4.022916	1.316238	4.210727	1.271692	6.363490	4.918545	3.839203	3.462238	7.583692
501.000000	6.430273	2.547434	4.092622	6.493399	5.788308	3.215608	4.852629	6.116601	4.567741	3.577860	4.794483	1.205483	3.752706	5.104224	1.777392	4.697832	4.146427	3.685070	3.232014	6.212420
502.000000	7.357026	3.323382	3.612480	5.861182	7.190303	5.027098	3.605741	5.832695	2.415487	4.258564	5.250037	0.101949	5.115217	5.576834	1.981140	3.567179	3.986312	3.280184	2.902599	5.383646
503.000000	7.705535	4.018915	3.692127	5.661323	7.620853	6.087253	3.409297	5.517392	2.321966	4.746584	5.131779	0.297564	5.660762	5.701510	2.012403	2.929698	4.250811	2.750507	2.577157	4.980501
504.000000	7.649601	4.619016	4.156529	5.760893	7.392196	6.585620	3.962266	5.211832	3.595802	5.077448	4.669121	1.377578	5.646336	5.551203	2.000648	2.743555	4.752531	2.222000	2.358853	4.886117
505.000000	7.363026	5.108671	4.830653	6.026963	6.816569	6.711746	4.963615	4.957156	5.545618	5.286683	4.091480	2.927240	5.328930	5.198862	2.075340	2.966916	5.304082	1.820625	2.350851	4.983622
506.000000	7.096571	5.536047	5.766909	6.111464	6.524019	6.824606	5.961068	4.923855	6.664464	5.531881	3.935925	3.577837	5.315746	4.642261	2.933478	4.046765	4.696730	1.655140	2.840702	4.829492
507.000000	7.080268	5.169881	5.417541	6.100462	6.973639	7.077124	6.598168	4.959077	6.890697	5.676816	4.249133	4.696184	6.163100	4.311441	3.996413	5.305676	4.540520	2.213503	4.395149	5.211718
508.000000	6.957704	5.572189	4.924592	6.080963	7.822853	7.227145	6.711329	5.009814	6.595737	5.374846	4.608422	5.798305	5.446592	3.584100	4.670779	5.706443	5.356203	3.412112	5.371564	5.274140
509.000000	7.544126	6.084277	5.716336	6.020641	7.092448	7.830501	6.228543	5.435105	5.871972	6.241776	5.867098	6.312944	6.100310	3.207932	5.398636	6.369163	6.122655	4.431408	6.324417	4.915744
510.000000	7.428012	5.470354	6.305182	5.767946	7.135219	7.996783	5.949394	5.750387	5.141932	5.993240	6.619641	6.045520	6.585035	3.810089	5.457723	6.742492	7.041280	5.374753	6.836483	3.837571
511.000000	7.791364	6.192527	6.828727	5.282681	6.957886	9.216781	4.795266	5.404345	4.271648	6.071117	5.820478	6.074198	7.467063	4.092033	5.440380	6.269977	7.571772	7.282331	7.030378	3.460016
512.000000	7.083261	6.806105	7.777730	5.893324	7.781562	9.132942	4.048282	5.931040	3.774417	5.318622	5.844881	6.599128	7.035347	4.742147	5.063385	5.803869	7.077487	8.644056	7.012972	3.119967
513.000000	7.124450	7.425942	8.553949	6.130438	8.083193	10.078956	3.561345	7.208702	4.633413	5.500601	5.948597	6.681604	7.486303	5.153147	4.894098	6.104056	7.324037	8.895135	6.376438	2.667692
514.000000	7.850084	7.422354	9.004608	7.205650	7.514147	9.772354	4.098900	7.636716	5.994401	4.663886	5.069520	7.210590	7.783853	5.413259	4.427417	5.790282	7.606951	8.549730	5.375846	2.847368
515.000000	8.284939	7.784573	10.019354	6.668368	7.039506	9.533541	5.231469	8.180166	6.884140	4.601923	4.924131	7.036832	7.890410	5.481506	4.265096	5.425312	7.204536	8.293888	5.886121	3.913748
516.000000	9.433499	7.437242	10.776378	7.464112	8.526674	9.554669	6.546193	8.277354	7.410846	4.398457	4.340499	6.288089	8.317364	4.743056	5.383869	6.550084	5.883380	7.675312	6.062552	4.889100
517.000000	10.782490	7.086886	9.460702	7.566548	10.055965	10.305499	7.809706	8.744317	7.313259	5.118594	5.261965	6.337499	8.257599	4.727280	6.940923	6.932287	6.488396	7.011375	7.459746	5.468953
518.000000	10.988688	6.771191	9.608172	7.943438	10.421727	10.270606	8.595918	9.521401	7.394939	5.782098	6.042667	6.457420	7.580855	5.297068	8.736825	7.633175	7.110016	6.988611	8.803499	6.090946
519.000000	12.122289	7.090921	10.236949	9.240760	9.651296	9.754434	9.872667	9.606746	8.123193	6.792203	7.512858	6.438021	7.702133	6.350333	10.444357	8.218490	8.511333	7.027000	9.733886	6.800625
520.000000	12.749881	7.503748	11.546028	10.542569	9.281042	9.765716	10.648093	9.688350	8.907270	7.850944	7.911494	6.703441	8.874979	7.157298	11.845767	8.763900	8.855611	7.611888	9.908606	7.385795
521.000000	14.423203	8.988678	11.833273	12.166590	9.899587	10.651054	11.703828	10.115650	9.637147	8.861662	7.924219	7.581590	8.489322	7.920555	13.125669	8.660578	9.184331	9.387028	10.909070	7.927401
522.000000	14.268904	10.317070	12.863786	14.300075	10.563599	10.905399	11.847308	11.036513	10.207310	9.950499	8.521650	8.623352	8.852888	9.320818	13.994065	8.787893	9.821923	10.609648	11.439110	8.186706
523.000000	14.354242	11.979413	13.537534	15.012191	11.451883	12.371296	12.303916	13.219963	10.794166	11.867172	10.007499	9.881131	9.988627	10.437890	15.011091	10.315949	11.128354	11.477709	10.907825	9.260893
524.000000	15.445641	13.907569	15.239422	15.829124	11.909413	13.734420	12.962261	15.017911	11.473422	12.205797	11.151683	11.508161	11.617375	11.858182	15.157520	10.342967	11.964811	12.720709	10.600280	10.475408
525.000000	16.330233	16.236254	16.943152	15.832497	13.105823	14.797893	13.190629	15.571956	11.547189	14.484273	12.555226	13.470872	13.507513	12.993828	14.798928	10.948639	13.276471	14.724681	11.639382	12.620986
526.000000	18.622098	18.644051	17.659958	16.344047	14.171674	16.395096	14.593590	16.592406	11.945629	15.644886	14.297697	14.847240	14.886373	13.651347	15.133240	12.336177	14.034814	16.028737	12.221963	14.363939
527.000000	21.107809	20.432023	18.182238	17.693916	16.845636	18.490107	16.529790	17.353653	12.086681	16.708242	17.564830	15.231166	15.956557	15.542676	14.833287	13.405741	16.666434	16.580047	13.643956	15.432846
528.000000	23.183240	22.198065	19.557599	19.491585	18.681469	19.673193	18.441888	19.211636	14.080235	17.186270	18.085772	16.703193	17.321021	17.327758	14.792564	15.200438	18.002816	17.121772	15.373455	16.891133
529.000000	24.656573	24.377249	21.229814	22.201445	20.526573	22.115221	20.523310	19.764918	16.948802	18.959371	20.221594	18.468951	20.055834	19.355855	16.002890	17.358189	20.189366	18.019510	16.681981	18.278392
530.000000	27.088368	26.117669	22.400932	24.364359	22.222727	24.708252	22.584639	22.704639	20.299979	21.281235	22.319650	20.954429	21.869599	20.398904	18.059977	18.783772	21.895105	20.244779	18.596569	19.491352
531.000000	31.093124	29.219044	24.782448	26.313427	25.695455	28.550629	24.765408	25.707389	24.476774	23.699184	24.216876	23.962611	22.191911	23.132284	21.566760	20.559627	23.586573	22.735385	21.770671	21.044662
532.000000	33.497110	32.138508	27.099347	29.108462	28.027179	31.578904	26.537040	28.139953	27.895105	26.550676	27.337226	26.564639	23.883590	24.847016	23.373706	22.830420	25.323147	26.112587	24.019249	22.470256
533.000000	36.842797	33.577786	30.832331	32.058765	31.202145	35.378298	29.506737	30.561422	30.347156	29.350653	31.379557	30.194476	25.663380	27.315991	26.739021	25.624639	27.397296	29.745291	26.408298	23.534732
534.000000	41.104406	36.606853	34.626084	35.736014	33.713310	37.740280	31.279604	33.777389	31.639650	31.023776	34.340793	33.418858	27.256037	30.784592	30.747273	27.787389	27.541096	33.721305	30.191841	26.637483
535.000000	44.440629	40.979277	38.644103	39.345688	35.363846	39.084639	34.153427	36.618065	34.158392	34.828205	37.156550	36.953800	30.903916	33.822401	33.802867	30.240326	28.994965	37.112844	35.160909	29.584219
536.000000	48.420746	46.004172	42.807273	43.297389	36.233357	42.714336	38.534732	39.984639	36.040909	36.598625	40.555758	39.953893	35.078182	36.980000	37.968671	34.583403	30.961096	39.640326	38.548718	33.004476
537.000000	51.144266	50.773403	47.117692	50.301935	41.796527	47.631538	44.484266	43.858462	40.534639	41.057016	43.620862	42.535105	39.930606	40.981935	41.135641	38.540909	33.492448	41.801305	42.208368	36.782984
538.000000	54.404662	55.888228	50.065152	55.781422	48.575152	52.078485	48.988252	48.346410	46.033427	45.444779	45.246131	46.558531	45.140606	44.213986	45.350839	41.867016	37.328904	45.142867	44.526131	41.127133
539.000000	58.171935	62.097902	54.501422	62.065618	55.308485	58.179417	53.244079	53.814499	52.313497	51.845128	49.431865	49.956970	50.224103	49.122121	49.330816	47.089860	43.785128	48.700676	47.608368	45.562984
540.000000	64.513497	68.211632	58.638718	66.513660	61.112914	64.814685	58.298765	60.379907	59.557156	56.070909	53.083263	54.992354	55.464429	54.783590	55.557786	50.730629	51.638555	52.859790	50.628881	51.104848
541.000000	74.384219	75.108904	65.632424	71.013800	68.910769	72.405408	63.458601	65.654592	65.983939	61.935245	58.360466	61.167762	62.356224	60.553800	61.541865	55.647203	57.455315	58.631189	55.640583	57.484242
542.000000	82.137483	81.289184	72.052587	78.436457	75.485921	79.400793	69.304429	71.991538	72.500699	68.950186	66.274126	68.292051	71.431865	65.448065	65.845758	62.176107	64.924639	66.267925	62.736667	64.619534
543.000000	90.353497	87.234709	84.321096	86.128135	84.956643	86.367226	77.123333	78.200163	77.306480	77.054172	76.003497	76.223263	77.639068	71.569814	73.678462	67.576853	72.492914	72.983986	70.924755	72.049371
544.000000	100.412541	94.210350	94.422867	95.717692	92.677622	93.638648	86.001492	84.745664	82.840420	84.559883	84.419231	82.356690	84.061096	77.074336	79.755524	74.576503	78.011515	78.913170	78.956014	81.615734
545.000000	110.441935	104.683333	104.202517	105.564639	101.183683	102.512867	96.945431	93.027832	88.611212	93.127692	94.810490	89.916667	90.714266	83.722191	85.476690	81.481538	82.994289	85.446247	88.580373	90.301515
546.000000	122.403427	117.361002	115.519161	115.953660	110.443357	111.508462	110.710932	101.694033	94.716434	101.761608	103.299837	98.682937	97.781399	91.480233	92.924172	90.567389	89.702984	94.106643	97.848298	100.021702
547.000000	131.017855	130.188788	122.615431	126.369161	122.514172	122.790956	124.122424	111.606643	103.567110	113.025478	112.291515	108.226900	103.064219	101.370490	98.448042	97.370070	96.573730	103.203193	105.410583	110.329394
548.000000	142.089417	143.300140	130.875524	139.165991	136.262890	132.504732	135.364848	124.087506	117.705688	123.091352	119.934522	119.525385	112.987786	113.429207	108.261888	105.298834	106.048718	111.621235	113.342844	117.630023
549.000000	155.963636	159.383263	141.785548	153.523357	148.140326	141.723963	146.283753	140.770466	132.826480	134.044452	129.151026	130.285921	122.176177	128.347716	119.808998	117.000769	118.079068	122.271981	121.528275	125.546014
550.000000	169.070629	171.268065	154.759907	166.124242	161.190443	153.635198	159.667879	155.022657	147.981655	140.300979	139.237716	141.266200	135.689697	142.845035	135.695035	128.755105	131.140490	134.429604	132.853380	137.646154
551.000000	186.636131	185.059907	172.045455	179.408159	175.701632	166.097203	172.458042	169.760606	164.278928	150.990443	155.337762	153.568065	151.999627	154.153823	150.051096	139.386643	142.556783	145.692168	145.889510	150.108858
552.000000	202.632401	202.425408	191.738228	197.515385	191.441725	181.271096	187.234033	186.076690	181.622145	163.957110	171.807459	170.255478	171.516876	169.225408	164.936643	151.448438	158.309510	158.148345	159.989977	163.376690
553.000000	219.038462	219.084615	217.230070	215.072494	213.997203	199.316550	206.118182	202.106061	202.117716	180.582284	190.029371	185.389044	189.211655	183.125175	182.570210	166.109790	173.235664	173.334499	175.284615	179.454312
554.000000	240.044755	238.184848	241.843823	237.585315	234.234732	218.600233	222.948718	216.220513	221.625408	199.907226	209.954079	198.817016	211.055711	201.115851	197.162005	185.919814	189.377389	191.136131	194.612354	196.748718
555.000000	262.326807	261.064103	265.872960	257.335664	260.602331	243.290210	241.834732	235.415385	240.515618	220.295571	232.868065	217.685781	229.450816	219.994172	213.125874	206.363636	206.955245	213.391375	211.906760	215.390210
556.000000	287.066900	283.962238	290.602797	276.062471	287.024476	266.800233	263.982284	258.489510	260.756410	244.977622	251.919580	235.252214	251.795571	240.849650	227.383450	229.075991	225.009790	239.867366	229.174359	233.461772
557.000000	314.003963	311.526573	312.324942	296.868298	313.799534	293.521212	284.199301	282.601632	284.406760	269.294872	271.475291	255.560606	273.133100	259.242424	240.241725	249.087413	242.728205	264.258275	245.648718	249.657809
558.000000	341.201399	342.143590	335.201166	321.910956	339.392308	316.704429	308.790210	313.574825	313.404662	297.693007	288.125874	280.093240	298.625408	282.586946	264.473893	273.100466	261.392541	288.717949	268.898834	267.721445
559.000000	368.955944	373.323776	363.078788	351.388345	364.012821	344.922378	336.701166	344.535431	339.797436	326.347786	307.982984	307.404662	321.335198	304.069231	290.825408	300.674359	284.089744	312.814685	293.835198	291.023776
560.000000	395.167599	401.577389	395.734965	380.685082	386.965035	373.480420	364.343357	371.939161	366.483450	348.776224	331.444988	332.742890	347.577389	326.423776	317.506061	327.515385	309.848485	335.541725	322.778322	316.980886
561.000000	425.992075	436.554545	426.210723	411.110490	413.822611	401.694406	394.709557	400.720047	392.650816	375.078788	360.762238	359.893706	377.824009	347.036364	342.816550	353.877855	335.063403	359.916783	347.024242	344.190443
562.000000	456.810956	472.741492	454.198601	445.213753	441.017016	434.173660	431.455944	432.885548	420.973193	397.924942	388.373893	389.187879	407.026807	370.192308	370.289044	381.557576	363.579953	383.087413	374.392075	372.687413
563.000000	486.824709	506.835431	484.778322	482.848252	474.114685	468.348951	466.286247	468.258741	458.355711	425.832168	416.048951	420.953147	435.513054	397.335897	403.104662	409.801166	392.609557	408.640093	405.320746	406.940093
564.000000	521.570629	544.652448	518.754312	519.550350	510.024942	496.020280	502.644056	499.543823	490.403730	450.979254	449.232634	456.566434	467.958741	429.572727	436.188112	443.209324	429.500233	436.016084	437.607692	442.061772
565.000000	562.866667	584.448718	554.994639	559.664802	550.617949	533.176690	539.866200	532.373193	524.843823	478.475524	483.616317	491.031702	498.328205	460.769231	469.777389	469.798135	468.896503	468.905594	467.309557	475.338695
566.000000	612.926107	617.592541	588.837063	597.711888	592.240793	566.627972	575.081119	568.627972	558.568765	512.229837	519.490909	523.838928	533.309091	497.215385	499.201632	496.891142	500.867599	503.345688	500.729604	506.908858
567.000000	664.729138	660.989510	622.431235	634.143124	631.000000	604.006061	609.141259	601.064802	594.000699	546.948951	554.782284	557.540326	565.445455	529.331235	531.113753	523.946154	529.557809	537.598601	531.680186	539.138928
568.000000	711.119814	710.217949	665.317249	673.365501	674.544522	644.882284	642.044056	637.694639	629.561538	587.044988	586.978322	594.093473	599.757343	569.328671	568.634033	554.749650	562.741026	573.012121	565.723776	570.886014
569.000000	755.052214	760.345688	712.141259	715.938695	716.037063	691.024242	677.527972	675.889277	667.161538	625.499301	621.971329	634.071562	634.137296	611.220979	601.392541	587.064802	597.863403	608.591608	600.150583	604.211189
570.000000	795.676690	806.923776	759.617249	760.596037	752.705361	737.620513	716.568065	714.398135	703.174592	663.820047	660.287179	672.211655	670.324942	655.256177	631.680420	617.281818	634.266900	650.056410	640.848252	639.875291
571.000000	835.661538	853.421678	808.134033	798.334499	801.840559	786.150583	763.904429	760.373193	740.317949	711.155012	701.475758	714.735664	711.336830	692.567133	659.212354	653.523776	671.111655	692.772727	676.599301	681.654545
572.000000	869.140093	891.675291	855.280886	842.167366	851.657576	834.172261	805.011422	810.059441	778.593939	755.209091	734.856643	755.611422	746.732168	729.720979	695.035897	692.153147	707.993939	731.558508	717.637762	720.175524
573.000000	905.902797	939.040093	901.590676	886.251981	908.263170	880.417249	853.306760	858.353613	825.159674	798.674359	767.160839	799.023310	787.773660	768.484848	741.180653	734.415851	743.356177	771.324476	761.095105	761.620746
574.000000	948.222844	986.302098	944.426107	925.285781	959.531935	925.921911	909.908392	905.208159	861.981818	838.446387	807.640559	840.191142	830.051049	801.778089	783.418182	784.714685	779.755478	811.296970	803.677855	801.602564
575.000000	1000.902331	1034.942657	991.861305	975.535897	1012.325641	972.837995	963.203030	952.215618	907.955478	878.118648	849.208625	881.975991	876.282984	838.833800	821.702098	832.167599	821.874359	853.474126	845.653613	840.118182
576.000000	1060.401865	1074.863170	1040.057576	1024.484848	1068.351748	1019.106061	1011.096270	998.939161	953.155478	923.082284	894.172494	920.666200	913.878788	881.657576	859.151981	884.848019	853.997436	890.115152	891.039394	879.388811
577.000000	1120.556177	1123.404196	1087.332401	1075.169697	1123.241026	1066.086014	1055.950350	1034.949650	1000.504662	959.722844	940.891841	960.272727	956.035431	922.220979	902.845688	931.148718	890.325175	926.894872	920.904895	914.552914
578.000000	1191.995105	1177.073660	1137.835897	1127.679487	1178.646853	1115.419347	1090.597436	1079.464103	1049.760606	993.728205	982.577156	990.345455	1000.655478	971.662937	944.271795	970.196970	938.204662	965.868298	951.141259	942.389277
579.000000	1256.444755	1230.645688	1192.385548	1177.665734	1219.503030	1160.893706	1139.203963	1124.491375	1098.502797	1033.682284	1029.496037	1034.909324	1044.175758	1016.989044	983.446853	1000.780886	980.931235	1009.822844	990.411189	978.209091
580.000000	1311.396270	1283.638695	1242.664336	1227.888112	1255.517483	1203.349184	1194.232634	1168.315152	1155.696503	1075.633100	1077.041725	1067.289510	1088.150117	1063.675058	1026.701865	1029.978089	1032.681119	1059.272494	1036.595105	1019.872727
581.000000	1364.086247	1340.130536	1294.750583	1276.419580	1303.412587	1248.452214	1239.411655	1218.445688	1209.430303	1124.503963	1126.587646	1115.617949	1127.979487	1103.240093	1062.641725	1065.064103	1084.838928	1104.873893	1084.984615	1067.639860
582.000000	1411.170163	1388.326340	1343.167832	1329.123543	1344.398601	1289.006993	1276.608392	1268.130536	1264.156177	1179.807925	1164.395804	1169.600000	1162.912121	1141.378089	1104.393007	1103.759207	1132.129604	1154.673427	1137.463636	1112.534033
583.000000	1463.226107	1443.165501	1392.354312	1375.165501	1386.086247	1338.104895	1335.114219	1320.780886	1317.666667	1227.883450	1209.755245	1219.500233	1215.757110	1179.880186	1159.179720	1143.622378	1168.548718	1198.184149	1193.926807	1166.254079
584.000000	1501.862471	1485.417249	1437.592075	1419.137529	1428.545455	1391.524476	1380.494172	1381.337995	1354.333333	1288.983683	1256.864802	1260.965035	1260.918415	1216.920746	1209.000932	1189.487179	1200.876457	1235.596737	1237.972494	1213.746387
585.000000	1543.748252	1529.053613	1492.384615	1467.517483	1468.911422	1437.687646	1420.655012	1435.519814	1390.594406	1343.000000	1297.076923	1317.876457	1302.205128	1258.293706	1253.398601	1241.578089	1242.897436	1272.554779	1276.531469	1258.303030
586.000000	1585.079254	1566.526807	1539.445221	1512.370629	1510.004662	1491.296037	1454.946387	1477.552448	1424.631702	1398.727273	1334.249417	1357.191142	1337.811189	1306.620047	1306.615385	1291.480186	1282.860140	1308.617716	1309.559441	1302.160839
587.000000	1624.645688	1611.207459	1585.911422	1549.498834	1548.815851	1544.759907	1495.358974	1509.044289	1453.862471	1437.613054	1385.286713	1397.776224	1384.156177	1346.466200	1355.585082	1334.414918	1328.522145	1344.137529	1338.771562	1344.783217
588.000000	1677.265734	1646.986014	1628.310023	1586.972028	1588.960373	1582.811189	1528.039627	1546.116550	1489.424242	1471.713287	1425.941725	1428.855478	1425.794872	1387.745921	1399.424242	1366.419580	1375.435897	1386.652681	1365.167832	1376.314685
589.000000	1715.041958	1682.368298	1669.144522	1621.878788	1628.139860	1613.685315	1567.613054	1574.696970	1522.314685	1514.554779	1460.937063	1463.650350	1473.321678	1425.906760	1443.020979	1400.310023	1410.902098	1430.177156	1403.906760	1415.244755
590.000000	1744.797203	1724.890443	1703.529138	1657.032634	1664.207459	1646.219114	1606.599068	1602.244755	1560.769231	1539.435897	1491.389277	1485.244755	1507.111888	1461.965035	1486.888112	1441.643357	1450.592075	1473.797203	1433.347319	1453.944056
591.000000	1772.622378	1765.223776	1730.335664	1698.629371	1704.069930	1680.755245	1645.550117	1632.524476	1599.289044	1571.771562	1519.487179	1532.965035	1543.585082	1491.428904	1514.242424	1470.270396	1487.065268	1512.524476	1473.314685	1482.864802
592.000000	1793.799534	1795.435897	1755.153846	1736.256410	1738.328671	1712.881119	1689.121212	1672.610723	1644.025641	1599.792541	1546.934732	1569.389277	1578.116550	1520.536131	1538.240093	1499.836830	1518.480186	1556.020979	1509.769231	1510.370629
593.000000	1820.447552	1822.899767	1779.522145	1766.675991	1780.960373	1752.461538	1736.743590	1708.715618	1677.813520	1623.116550	1580.083916	1606.722611	1621.456876	1563.307692	1567.307692	1520.965035	1542.794872	1579.303030	1546.876457	1535.862471
594.000000	1843.538462	1849.195804	1804.536131	1801.953380	1817.641026	1778.627040	1762.307692	1743.424242	1707.128205	1654.426573	1610.412587	1636.545455	1647.941725	1597.799534	1585.955711	1542.596737	1570.822844	1599.638695	1567.086247	1561.601399
595.000000	1870.962704	1880.100233	1831.547786	1833.748252	1834.083916	1800.766900	1785.263403	1775.585082	1736.174825	1676.988345	1629.009324	1671.839161	1666.032634	1627.326340	1609.699301	1565.475524	1598.864802	1622.125874	1589.720280	1585.689977
596.000000	1886.734266	1897.242424	1856.620047	1854.729604	1854.368298	1830.349650	1804.937063	1789.620047	1762.442890	1698.571096	1654.207459	1694.107226	1689.997669	1656.473193	1635.256410	1581.104895	1619.923077	1637.988345	1611.848485	1608.048951
597.000000	1900.745921	1915.762238	1882.130536	1871.846154	1873.382284	1853.268065	1830.934732	1807.347319	1789.011655	1710.529138	1698.440559	1715.512821	1705.048951	1680.703963	1649.342657	1596.438228	1646.034965	1653.573427	1640.547786	1629.748252
598.000000	1930.072261	1926.722611	1907.804196	1896.932401	1895.806527	1860.403263	1843.713287	1830.076923	1817.062937	1732.389277	1731.794872	1733.142191	1726.836830	1694.972028	1668.233100	1608.058275	1667.249417	1678.648019	1656.533800	1655.846154
599.000000	1951.596737	1943.529138	1923.864802	1914.557110	1912.165501	1876.324009	1857.643357	1845.032634	1827.463869	1760.289044	1756.687646	1744.745921	1749.424242	1722.079254	1686.610723	1633.634033	1686.461538	1706.202797	1674.296037	1684.111888
600.000000	1968.895105	1960.580420	1933.883450	1925.613054	1928.440559	1884.701632	1865.911422	1867.431235	1836.039627	1774.813520	1772.603730	1762.256410	1765.396270	1731.048951	1703.659674	1651.694639	1703.086247	1726.251748	1686.606061	1701.090909
601.000000	1982.032634	1971.270396	1936.902098	1934.379953	1939.307692	1894.645688	1885.428904	1881.979021	1850.237762	1788.258741	1784.986014	1777.806527	1789.969697	1737.167832	1712.300699	1665.142191	1715.808858	1749.608392	1703.219114	1708.853147
602.000000	1983.592075	1978.505828	1942.937063	1939.083916	1944.454545	1909.515152	1901.867133	1899.403263	1851.606061	1799.156177	1798.489510	1775.333333	1807.543124	1748.382284	1721.909091	1684.296037	1729.191142	1764.097902	1710.682984	1721.519814
603.000000	1990.018648	1993.254079	1944.708625	1938.972028	1946.356643	1903.540793	1904.822844	1900.585082	1849.214452	1813.862471	1793.102564	1785.948718	1819.491841	1765.447552	1731.377622	1703.498834	1739.594406	1776.121212	1720.177156	1730.526807
604.000000	1994.990676	1999.946387	1944.564103	1950.396270	1944.102564	1893.708625	1899.715618	1892.389277	1856.111888	1818.186480	1788.883450	1787.692308	1828.480186	1770.724942	1727.720280	1720.923077	1751.743590	1781.449883	1724.752914	1746.258741
605.000000	1997.449883	2011.813520	1940.405594	1940.009324	1935.785548	1892.571096	1894.997669	1883.459207	1866.820513	1816.382284	1772.013986	1791.198135	1830.340326	1776.114219	1734.526807	1732.997669	1744.356643	1776.393939	1741.440559	1752.554779
606.000000	1987.703963	1997.298368	1947.638695	1939.433566	1936.459207	1891.573427	1894.356643	1874.573427	1870.477855	1809.254079	1767.645688	1796.000000	1835.724942	1773.179487	1737.916084	1741.319347	1731.799534	1767.776224	1757.428904	1756.526807
607.000000	1980.613054	1977.426573	1944.918415	1942.268065	1932.911422	1892.303030	1892.491841	1875.324009	1874.920746	1808.114219	1770.006993	1801.419580	1830.081585	1773.610723	1743.594406	1747.501166	1735.058275	1758.263403	1773.610723	1752.783217
608.000000	1978.808858	1968.212121	1951.834499	1940.757576	1927.930070	1897.456876	1882.132867	1877.233100	1869.524476	1806.769231	1770.601399	1802.701632	1837.678322	1763.750583	1747.983683	1748.419580	1730.559441	1749.454545	1771.165501	1756.151515
609.000000	1969.724942	1959.414918	1958.277389	1930.855478	1925.811189	1904.475524	1878.258741	1871.268065	1855.944056	1802.286713	1767.340326	1800.790210	1832.461538	1772.207459	1744.053613	1744.715618	1729.599068	1743.923077	1770.195804	1748.890443
610.000000	1965.324009	1944.337995	1949.636364	1929.459207	1917.240093	1896.689977	1861.620047	1884.123543	1850.524476	1796.027972	1761.076923	1799.270396	1828.864802	1758.603730	1735.613054	1730.585082	1722.727273	1741.580420	1771.512821	1730.657343
611.000000	1953.244755	1922.090909	1942.480186	1917.659674	1905.023310	1891.589744	1850.051282	1880.622378	1834.144522	1784.142191	1761.713287	1784.694639	1825.086247	1751.324009	1727.559441	1724.766900	1714.818182	1745.130536	1761.058275	1711.780886
612.000000	1929.468531	1905.263403	1929.988345	1901.578089	1885.538462	1883.069930	1831.717949	1877.976690	1816.897436	1786.675991	1746.804196	1766.979021	1816.463869	1745.331002	1723.585082	1714.885781	1706.531469	1740.867133	1744.233100	1690.708625
613.000000	1915.296037	1904.692308	1909.953380	1881.710956	1872.820513	1864.745921	1813.578089	1866.997669	1813.384615	1779.498834	1728.093240	1750.058275	1799.421911	1732.582751	1715.303030	1703.815851	1691.011655	1744.181818	1724.995338	1668.899767
614.000000	1901.689977	1891.312354	1880.074592	1865.025641	1864.860140	1854.221445	1793.934732	1849.074592	1801.170163	1762.104895	1720.983683	1725.671329	1777.510490	1716.083916	1691.027972	1690.487179	1685.944056	1726.762238	1697.410256	1652.673660
615.000000	1895.573427	1888.958042	1852.034965	1843.254079	1837.335664	1835.860140	1783.484848	1827.543124	1786.692308	1742.643357	1706.937063	1712.508159	1749.689977	1695.601399	1669.636364	1677.254079	1665.410256	1712.911422	1682.067599	1641.585082
616.000000	1882.470862	1871.060606	1830.662005	1835.051282	1813.599068	1815.167832	1782.118881	1812.314685	1769.065268	1719.349650	1705.286713	1699.832168	1721.160839	1669.046620	1656.741259	1658.048951	1656.799534	1701.652681	1664.813520	1630.867133
617.000000	1859.783217	1847.062937	1804.962704	1813.841492	1797.013986	1798.727273	1773.990676	1788.372960	1745.179487	1697.146853	1690.585082	1687.874126	1699.312354	1643.955711	1643.764569	1639.857809	1647.736597	1680.538462	1646.347319	1629.291375
618.000000	1832.899767	1829.414918	1790.790210	1788.331002	1776.953380	1783.993007	1764.890443	1758.759907	1720.296037	1675.655012	1668.463869	1674.335664	1680.519814	1624.818182	1625.986014	1618.349650	1634.118881	1656.745921	1616.065268	1632.289044
619.000000	1805.547786	1805.969697	1772.104895	1760.368298	1761.261072	1757.743590	1752.960373	1726.365967	1693.139860	1657.752914	1645.752914	1651.447552	1655.631702	1613.906760	1599.657343	1600.589744	1613.960373	1637.386946	1597.303030	1633.421911
620.000000	1782.172494	1780.608392	1749.820513	1741.116550	1736.846154	1726.713287	1722.503497	1699.839161	1667.524476	1640.643357	1624.864802	1630.466200	1638.125874	1594.149184	1577.067599	1583.365967	1593.265734	1621.342657	1581.797203	1619.853147
621.000000	1756.375291	1745.209790	1725.862471	1712.841492	1715.939394	1685.095571	1683.428904	1667.638695	1633.254079	1618.095571	1609.447552	1600.564103	1617.671329	1579.594406	1559.533800	1561.510490	1576.219114	1595.843823	1563.657343	1605.095571
622.000000	1724.738928	1713.337995	1694.088578	1672.370629	1698.212121	1656.876457	1652.284382	1636.969697	1613.223776	1604.146853	1576.827506	1581.361305	1598.074592	1567.720280	1536.086247	1537.254079	1545.039627	1571.223776	1543.540793	1575.386946
623.000000	1704.268065	1683.608392	1660.163170	1640.892774	1678.951049	1633.622378	1625.503497	1609.627040	1600.965035	1588.766900	1555.319347	1557.496503	1576.473193	1547.937063	1516.144522	1513.797203	1520.142191	1541.051282	1519.247086	1541.442890
624.000000	1680.748252	1643.358974	1630.846154	1614.344988	1646.347319	1605.766900	1598.181818	1592.503497	1569.967366	1559.745921	1539.599068	1528.757576	1541.759907	1526.296037	1487.920746	1487.722611	1494.463869	1504.517483	1483.202797	1506.349650
625.000000	1658.009324	1611.139860	1599.811189	1600.848485	1606.249417	1573.235431	1576.375291	1563.083916	1542.855478	1530.794872	1513.836830	1508.233100	1506.053613	1499.613054	1464.172494	1456.034965	1469.615385	1472.090909	1458.533800	1478.156177
626.000000	1635.759907	1577.428904	1567.083916	1577.337995	1571.547786	1553.382284	1555.093240	1544.671329	1521.431235	1496.473193	1492.032634	1477.121212	1473.016317	1474.769231	1441.279720	1416.473193	1451.745921	1442.960373	1432.284382	1444.421911
627.000000	1601.680653	1542.020979	1532.351981	1558.006993	1534.652681	1527.967366	1532.785548	1518.270396	1494.664336	1467.030303	1461.578089	1440.298368	1446.268065	1445.722611	1411.592075	1384.018648	1420.386946	1407.186480	1398.648019	1429.312354
628.000000	1563.710956	1516.848485	1505.214452	1535.634033	1506.074592	1499.745921	1503.144522	1492.778555	1471.979021	1448.799534	1425.764569	1408.137529	1416.244755	1416.976690	1390.743590	1354.918415	1397.762238	1376.268065	1368.326340	1401.846154
629.000000	1534.773893	1500.393939	1477.149184	1502.128205	1483.118881	1462.331002	1468.724942	1459.603730	1440.277389	1427.289044	1395.573427	1376.526807	1392.568765	1387.787879	1359.829837	1332.720280	1366.477855	1354.920746	1351.060606	1374.011655
630.000000	1511.687646	1482.645688	1453.011655	1467.557110	1462.864802	1434.715618	1427.902098	1422.293706	1406.652681	1400.853147	1371.137529	1352.347319	1369.561772	1351.265734	1339.226107	1309.006993	1338.638695	1329.692308	1332.745921	1341.496503
631.000000	1481.596737	1460.885781	1422.755245	1431.601399	1436.888112	1407.808858	1386.608392	1388.538462	1376.202797	1376.526807	1352.967366	1328.123543	1345.400932	1314.377622	1308.559441	1279.606061	1311.044289	1305.435897	1316.363636	1324.687646
632.000000	1448.962704	1432.282051	1389.202797	1388.771562	1412.414918	1377.324009	1358.125874	1347.787879	1339.498834	1349.442890	1329.249417	1312.128205	1328.146853	1285.058275	1286.470862	1257.773893	1273.452214	1285.223776	1297.067599	1291.918415
633.000000	1416.319347	1399.682984	1352.988345	1352.997669	1381.958042	1349.048951	1332.291375	1311.153846	1305.780886	1325.953380	1305.806527	1289.538462	1302.522145	1251.888112	1264.671329	1235.857809	1251.000000	1256.384615	1275.606061	1260.988345
634.000000	1380.925408	1367.620047	1332.104895	1325.787879	1349.850816	1321.981352	1308.832168	1292.752914	1267.393939	1284.163170	1280.687646	1259.317016	1277.452214	1222.477855	1242.349650	1214.305361	1218.736597	1225.818182	1245.188811	1239.920746
635.000000	1339.011655	1329.794872	1301.545455	1304.995338	1324.575758	1299.261072	1283.778555	1270.004662	1238.226107	1248.083916	1248.855478	1228.179487	1248.696970	1194.198135	1216.090909	1187.566434	1197.745921	1202.195804	1223.603730	1218.407925
636.000000	1306.414918	1290.685315	1275.498834	1277.920746	1290.930070	1273.151515	1253.736597	1256.769231	1213.972028	1208.722611	1222.988345	1194.221445	1223.114219	1171.088578	1176.983683	1165.041958	1173.317016	1174.876457	1194.785548	1188.016317
637.000000	1278.769231	1252.855478	1248.403263	1262.960373	1255.906760	1238.857809	1226.249417	1239.668998	1194.790210	1177.680653	1196.440559	1164.983683	1192.163170	1150.163170	1145.016317	1145.569697	1139.069930	1139.643357	1163.657343	1161.808858
638.000000	1252.102564	1227.841492	1234.484848	1243.575758	1233.254079	1202.655012	1192.258741	1230.025641	1179.076923	1152.179487	1158.503497	1132.230769	1159.027972	1122.783217	1116.848485	1119.232867	1116.113753	1118.821911	1135.186480	1121.671329
639.000000	1227.920746	1204.948718	1217.258741	1211.034965	1197.048951	1171.736597	1163.265734	1212.468531	1156.582751	1129.085781	1125.347319	1113.979021	1135.930070	1102.422378	1086.997669	1099.667133	1087.959207	1101.738695	1115.268065	1088.901632
640.000000	1204.955711	1178.668998	1191.650350	1174.048951	1168.249417	1148.515152	1137.799534	1189.326340	1136.874126	1097.637529	1101.457343	1094.174825	1110.582284	1074.511422	1066.819114	1075.353147	1059.468765	1076.482984	1084.331935	1059.215851
641.000000	1176.156177	1157.573427	1166.501166	1143.890443	1134.494172	1124.624709	1111.433566	1160.117483	1119.275524	1075.922844	1077.495105	1076.645688	1085.975758	1049.037063	1040.800000	1050.784848	1036.532867	1050.851748	1061.217249	1040.088811
642.000000	1156.983683	1132.615385	1138.678322	1108.736597	1103.265734	1100.731469	1092.425175	1122.936131	1087.072494	1046.227739	1054.115152	1057.863170	1061.360140	1024.020047	1035.483916	1025.110023	1016.092774	1028.918182	1034.514452	1016.370629
643.000000	1133.268065	1110.248485	1101.701166	1078.683450	1081.435897	1080.132867	1074.088811	1086.415385	1060.466200	1016.339627	1031.201632	1039.496737	1031.343124	1001.325175	1013.375991	999.120979	996.114918	1003.760839	1006.522145	1000.386713
644.000000	1109.154312	1084.786946	1072.263170	1053.349883	1060.231235	1058.547786	1054.582284	1057.169930	1034.222145	989.352214	1006.966900	1014.757809	1009.366200	978.318881	997.465268	982.693240	969.927273	982.011422	981.947552	982.617949
645.000000	1075.319580	1053.941725	1039.437995	1030.447786	1041.632867	1034.890210	1033.433333	1024.693240	1013.287879	969.869231	991.609790	992.585315	984.833800	958.046387	973.893007	959.651049	947.650816	965.617016	956.948252	964.073193
646.000000	1054.745221	1026.810723	1017.265268	1005.799068	1021.068765	1008.987179	1008.669930	994.266667	993.035198	948.951049	979.541492	971.972960	959.902331	938.340326	951.271562	943.441725	926.253846	946.207692	933.235897	940.595571
647.000000	1036.610956	1008.563170	990.515851	992.665501	1001.753147	989.358275	984.456410	970.806061	975.731235	933.706061	958.646387	945.662704	933.733800	921.162937	935.032634	924.003497	906.067133	930.019114	911.288112	920.731702
648.000000	1011.902797	989.157576	971.307925	984.639860	974.927506	971.804429	963.675058	951.355245	958.650816	918.103730	934.552214	911.525641	912.877156	899.805594	908.648019	902.665734	890.880653	920.419114	889.756410	901.434266
649.000000	981.284615	973.003963	951.941725	964.577389	946.017949	952.927972	940.076690	934.708625	940.917016	906.184149	911.349184	893.638228	895.820979	885.355478	889.747552	890.159207	876.081585	903.456177	877.502098	887.318415
650.000000	955.379720	956.844988	934.344056	947.491841	926.555944	929.360373	922.529604	919.226340	922.017016	889.361072	895.056410	877.372028	875.752914	869.870862	872.289277	869.901399	863.656876	880.044522	859.596270	873.162704
651.000000	931.959674	936.933800	918.766434	930.584615	909.644289	906.072028	905.697436	902.595571	904.940093	875.813753	875.107459	861.139627	856.220047	855.238462	851.020746	853.807692	860.798834	856.052681	846.358508	856.765035
652.000000	907.984848	913.785781	899.335897	904.729604	894.409324	893.926340	889.483450	885.108392	878.521212	858.440326	861.576224	844.805361	839.965501	841.213986	833.194172	830.248718	849.952214	842.853147	830.832401	836.316084
653.000000	885.721911	891.030769	878.486480	881.750117	883.268765	868.476224	864.893007	866.994639	856.122844	837.274592	846.554545	834.662005	824.659674	827.224242	809.829138	813.370862	823.605361	821.857576	811.727040	815.101865
654.000000	866.538695	865.344289	858.696037	856.099534	866.594406	845.768998	844.192308	845.141492	828.348951	824.773893	830.368065	817.727506	808.067133	807.413986	789.344056	796.385781	797.181352	799.287879	794.913753	787.576224
655.000000	846.944988	841.831702	842.234033	839.913520	846.402331	822.190909	823.824242	823.464103	804.484615	810.351981	814.439394	798.914452	793.165268	785.941259	769.109790	776.894172	774.744289	778.321445	776.665501	772.658974
656.000000	834.592774	823.097902	825.686946	822.575058	831.303263	804.362704	807.868998	801.241026	783.204429	790.352914	796.785082	779.389510	774.234033	764.147086	757.033100	755.892308	753.875758	764.313520	762.094172	747.072727
657.000000	811.840793	814.331002	803.782051	808.036364	810.549650	786.246387	788.418648	777.217249	764.985082	768.388112	771.760373	754.500000	756.343590	740.468765	740.997902	734.378555	734.954079	749.554079	741.707459	730.445688
658.000000	793.096970	798.182284	785.172028	793.988345	788.429138	768.506061	772.713054	754.046620	751.610023	744.228205	748.674592	733.523776	740.539627	721.482984	723.679021	718.624242	716.291142	734.428438	725.758508	718.879021
659.000000	773.167599	784.066434	766.459674	773.491841	768.092075	748.530070	752.726573	735.333100	739.619580	724.728205	726.876923	724.590676	716.889044	708.539627	707.127040	704.249650	700.764336	719.473660	713.049883	703.389277
660.000000	756.588811	766.688578	744.906061	752.727739	747.126573	731.031235	741.989744	720.263636	729.881818	706.467366	708.534499	714.111422	698.793473	696.144056	693.206527	690.744522	686.239860	704.838228	698.903263	687.578555
661.000000	739.721445	748.609324	727.780186	728.844755	733.934732	719.504662	730.530303	702.931002	719.373660	689.713054	693.195105	697.539627	681.709091	679.246387	673.825874	677.757110	676.793473	688.375058	682.861538	669.130070
662.000000	723.584615	728.749417	710.670629	709.778555	717.495105	707.616550	715.144056	688.655944	703.635664	677.511422	682.697902	676.358741	667.433800	666.693473	658.313986	660.771562	662.555711	674.269464	671.009091	652.179254
663.000000	709.590443	707.800466	696.627972	688.168765	700.811888	694.082284	691.597436	677.088811	686.099767	665.268531	668.704662	659.950117	658.434499	654.852681	645.326107	647.053147	648.851049	653.234965	653.387646	639.169930
664.000000	696.337063	684.288345	680.576690	669.360140	679.094406	681.186713	671.932168	666.251515	664.687179	653.012821	656.669697	643.374592	645.025874	637.248019	630.067832	631.819580	636.953380	632.936597	640.762704	626.013986
665.000000	684.020746	666.206993	670.426340	652.157110	661.077622	665.359441	656.440793	654.248019	647.284615	638.934033	639.257110	626.741259	632.696037	619.210256	615.905128	614.177156	622.858508	617.814918	626.612821	613.875524
666.000000	672.719347	649.820746	655.592075	638.740793	649.892774	645.798601	638.322844	639.620513	628.007459	620.708392	621.399767	613.039394	618.894172	602.775524	606.946620	593.087646	608.713520	603.121911	610.590909	603.088811
667.000000	654.583683	635.981352	641.340093	623.148718	631.797902	624.680420	616.044755	623.394639	610.482984	602.661305	601.678322	596.242890	604.854779	585.087179	593.594406	578.266434	592.094639	585.038228	592.162005	599.571329
668.000000	637.887879	617.585082	625.620047	608.756876	617.420047	604.165035	595.412354	608.695571	592.226107	586.639394	584.090676	580.420979	590.045688	576.006993	578.324242	564.548252	573.819580	567.866434	574.837296	591.046154
669.000000	616.686014	597.251049	607.301632	594.248718	602.673193	583.380186	579.745688	594.083916	576.578788	568.419114	568.357343	567.302331	572.285315	564.133800	558.084382	550.417249	551.201865	559.965501	555.404895	574.830769
670.000000	595.184615	582.399301	588.636830	578.501399	590.248485	572.474359	570.249417	579.507692	564.192541	554.378788	553.248019	553.452448	560.271329	548.018648	541.141492	538.293706	532.511189	554.175758	541.498834	558.865734
671.000000	578.516783	572.366434	571.724709	560.269231	578.095338	565.384615	559.203497	563.927972	550.101399	543.591608	537.022611	540.037296	542.875058	532.934965	519.420746	525.531935	515.164336	544.412821	521.050816	540.346853
672.000000	566.118415	560.429138	552.419814	548.854312	560.970396	554.020047	549.322611	550.912121	540.602797	532.041725	523.910723	523.103263	524.903030	518.251049	504.983916	509.687413	501.469930	532.932401	507.436830	525.929837
673.000000	548.490676	547.861072	534.163403	534.117483	543.756177	542.808392	536.500000	541.223077	530.849184	518.887879	512.367366	508.384149	509.059441	506.999301	490.521678	495.903730	494.110956	517.890210	495.421911	505.903030
674.000000	531.278555	533.077622	517.026573	517.271562	527.925408	531.745921	521.380653	528.328904	519.726340	503.758974	496.977855	494.617949	495.228205	493.060606	477.472960	483.628438	484.686713	505.221212	487.665035	485.982284
675.000000	516.824009	527.568531	504.302797	500.100466	515.516317	516.329371	505.810490	508.036364	502.441026	486.060606	480.379254	479.364569	479.303730	475.679021	467.368765	469.319814	474.249417	492.959674	474.305828	470.995571
676.000000	502.947086	513.475058	490.037529	485.944755	500.227040	500.454545	489.724942	488.901865	485.663403	471.068765	466.431702	463.416317	464.333566	460.385548	457.803497	455.355711	464.629837	474.254779	461.521445	463.549417
677.000000	485.489510	499.940326	478.563170	472.505128	480.497436	486.003497	473.410723	468.883916	469.330070	459.624242	451.955944	448.054079	452.946387	445.226340	446.159441	450.275291	451.989510	453.413986	448.550583	455.385781
678.000000	468.748252	482.685315	467.840326	460.802797	469.022611	470.434965	458.984382	452.892308	452.939161	449.730769	441.437063	433.665501	444.002098	434.800233	431.085315	438.388811	437.565501	432.125408	432.581585	443.957809
679.000000	452.007692	465.681119	458.566434	451.042191	457.802797	451.987879	447.486247	436.008392	435.563403	437.386713	428.684615	419.946387	434.415618	422.332634	416.130536	426.365734	419.308625	423.986014	415.975291	432.394639
680.000000	436.020746	448.600699	449.263403	438.306061	449.329604	437.591375	434.280420	424.263636	421.909790	426.469930	416.120047	409.620047	426.948252	410.975524	406.612821	415.330070	405.906294	415.320047	404.717716	420.263403
681.000000	421.548252	434.310256	438.203263	421.558974	432.718648	423.306527	419.471329	414.950583	408.682517	420.079021	404.483683	403.583217	413.333333	398.941958	394.521212	400.959907	391.921911	406.560140	391.692774	403.433800
682.000000	406.816317	417.112354	427.393939	410.639161	416.961538	407.990676	408.947786	406.833333	398.714685	410.255478	396.458508	396.490210	399.637995	383.889277	383.780420	386.629371	379.684382	397.978555	383.513520	392.495105
683.000000	394.859674	403.863403	417.149184	398.948252	400.582284	391.385781	395.859207	397.772727	390.917949	396.897203	385.358508	387.582284	387.858508	375.921212	373.886713	376.181119	370.696970	387.319580	376.539860	377.194406
684.000000	389.628904	388.625874	401.566900	387.978322	387.357809	377.944755	380.014918	384.202564	378.856643	381.586480	371.171329	376.341958	377.342191	365.390676	361.751748	365.650583	361.367366	376.827040	365.835897	366.882051
685.000000	382.313753	378.895571	388.027273	377.941725	373.459441	363.490676	367.027040	370.293939	367.513520	363.195571	361.452681	367.765734	361.457809	351.246620	352.411655	353.135198	351.141725	363.378555	351.274592	358.371329
686.000000	371.960839	366.299301	375.692075	364.734033	359.981818	351.939860	355.320979	359.065035	359.511189	351.389277	350.598601	354.154312	347.109790	341.873893	342.096503	342.985781	337.733800	348.838462	337.948485	346.670629
687.000000	359.581119	355.431702	366.539161	352.890909	346.227273	345.408159	346.127972	346.062238	351.028904	337.725175	339.262937	342.655012	333.812587	329.960373	330.997902	336.297436	326.891375	332.850816	326.731935	334.377855
688.000000	348.022145	346.074825	355.339161	339.756876	338.254312	337.819114	337.428671	333.590676	343.162937	324.790909	328.170862	332.060140	323.178788	318.798135	317.777622	320.611888	319.116550	319.540093	311.482751	325.943823
689.000000	338.021911	335.484149	342.382984	329.094872	327.972028	331.184382	327.581119	320.887879	335.202098	312.120513	313.582051	318.942890	310.922145	307.441725	305.723543	310.409790	311.020513	314.432867	298.323776	315.831702
690.000000	326.817483	327.663869	328.327273	316.958275	319.474126	324.692075	315.772727	312.881585	327.786480	302.256643	299.012121	307.846620	301.421911	299.099534	297.897203	299.434499	303.407692	307.823310	291.608392	305.076457
691.000000	312.790443	319.453613	316.389977	305.426573	309.419347	317.087879	303.465268	307.744289	318.620979	296.927506	289.591375	300.136131	294.234033	287.687879	285.683450	286.908392	299.183683	300.948951	287.340093	294.252914
692.000000	300.508858	310.231702	303.558275	294.312821	295.796737	305.299301	292.847319	298.886014	306.418881	291.799767	279.890909	291.931702	284.923077	275.124242	276.588345	280.281585	291.236131	292.619114	283.059907	285.201632
693.000000	294.825175	301.550117	294.278788	284.313520	282.132867	292.533333	280.137529	287.871795	292.952448	282.797902	269.709790	286.000233	277.884149	268.455012	271.443590	274.801865	283.301399	284.096503	279.513287	275.140793
694.000000	289.005828	290.777855	286.587413	277.954545	273.887179	279.918182	269.130070	276.803730	280.815618	272.767832	263.802564	276.075291	271.996737	257.254079	265.033100	267.144056	273.848951	271.096970	272.228671	264.197436
695.000000	279.276457	277.151515	280.890676	272.255012	265.614918	266.485082	263.521911	267.878555	268.843823	262.010723	258.835431	269.359441	263.305594	252.421445	259.399301	257.796737	259.002564	257.452681	265.845221	253.882751
696.000000	269.035897	269.396503	274.170862	265.328671	259.711422	255.611888	254.437762	259.740093	254.146154	255.825641	250.561072	258.720513	257.690676	247.721212	255.325874	251.340793	245.077389	246.337063	257.213753	246.189277
697.000000	259.234965	260.881585	267.615152	258.435431	254.418182	246.793939	247.821678	251.994172	241.784382	245.520047	242.597669	249.522378	250.285315	240.010956	248.656876	244.613054	237.533566	236.259674	248.986247	238.600466
698.000000	249.305361	251.980420	259.650583	248.798834	248.911422	238.467832	243.522844	241.835897	233.671795	233.712821	235.915618	241.493007	241.012121	230.803030	240.806294	234.433800	229.283450	232.909557	237.750816	234.142890
699.000000	243.839161	244.431702	249.052681	242.095571	242.238228	233.625874	236.085082	232.795338	230.901632	221.679953	226.666667	233.367599	232.016084	225.115618	232.238462	224.950583	225.120047	227.612587	227.517016	226.533333
700.000000	236.944988	236.651515	239.500932	234.665734	236.095105	229.686014	230.597203	225.718881	224.510256	216.262005	217.892541	226.995804	227.304429	220.782984	223.442424	214.689977	219.767366	225.058974	221.717016	221.827273
701.000000	232.100466	229.096737	231.461072	229.290443	232.390443	225.334266	224.054779	222.455711	220.483217	212.986014	213.043823	219.181119	221.626107	215.720513	214.125175	206.998601	219.189977	218.283683	214.688345	215.738928
702.000000	227.793939	221.963403	221.342424	220.551981	223.583683	219.803263	216.754079	214.644988	214.576690	209.729371	207.982284	212.895105	211.804429	209.136131	206.111655	203.234266	214.726807	211.722378	208.265734	206.716550
703.000000	225.081585	212.294172	219.480886	214.439161	218.148718	214.257809	212.334499	207.849650	210.418648	205.148718	204.625874	207.052214	205.391375	203.919114	197.749184	199.057343	208.102331	208.509790	201.463170	201.245921
704.000000	221.174592	205.444755	214.155245	208.213753	214.005361	207.830070	209.732401	200.530769	207.968998	199.251981	202.156177	200.934965	199.136830	195.882517	192.394406	193.401166	200.019814	200.864802	193.746620	195.052681
705.000000	213.080653	198.104429	205.464802	202.143357	207.837762	200.049883	206.902564	196.792308	202.127040	196.733333	196.583683	196.129371	190.992774	192.678555	186.250583	190.420047	191.097203	191.987179	188.080420	192.811189
706.000000	205.161305	196.073193	197.467832	197.196270	201.318881	196.514219	197.976690	195.386480	194.890210	191.437762	191.245221	187.124942	184.502331	186.620280	179.879487	188.046154	185.070396	183.142424	181.241725	192.722145
707.000000	197.764103	190.528438	191.335897	190.695804	196.087179	190.320047	189.470862	191.888578	186.394172	183.848951	183.338928	177.785781	177.136597	182.307226	173.851981	184.377156	179.889277	175.729604	174.313753	188.590676
708.000000	188.450350	184.053613	186.279487	185.175058	189.957576	182.645921	186.401166	183.783683	181.878555	175.599767	176.340326	170.746853	170.968298	179.671795	169.419580	178.427273	174.255944	170.823310	168.545688	181.846154
709.000000	179.688811	180.815385	177.707459	179.552914	180.274359	174.930070	180.455478	175.607459	176.403963	168.590443	166.349650	165.894172	166.448718	176.268531	162.236597	169.870396	170.076457	167.084382	163.877156	173.167133
710.000000	170.628904	175.016783	168.605828	173.989744	173.165035	168.515618	175.287879	169.830536	169.289510	162.891841	159.742890	161.226807	160.625408	171.231469	156.941958	161.236830	163.215152	163.226107	160.394639	163.657343
711.000000	163.221212	170.797902	159.188811	169.732401	169.132634	162.566200	168.651748	164.537063	161.903030	155.912587	155.451282	157.453147	154.764802	165.493007	154.307692	154.753613	159.556177	158.819347	155.950117	153.293007
712.000000	157.887646	164.628205	154.066667	162.782284	163.941725	157.311422	162.810023	156.106993	155.437063	150.350350	152.333800	154.035897	150.901166	159.086713	150.538928	150.005128	152.413287	156.200466	147.831935	143.366434
713.000000	152.923077	157.391142	150.981585	157.431469	162.283450	151.683217	156.735897	149.794872	151.513287	148.539627	150.685781	150.244289	147.895105	150.817949	145.091375	146.363403	145.696737	153.450583	142.752681	138.607226
714.000000	151.036364	152.250816	144.509557	149.150583	160.118182	145.912821	152.876457	144.204196	147.506993	143.100000	148.702331	148.457576	144.073193	141.421678	143.056643	143.706527	136.962937	149.261772	141.441259	134.117016
715.000000	147.761538	146.466434	140.892075	141.859207	155.438695	140.970163	147.524942	142.199534	143.612121	139.552914	144.113753	144.487413	140.085315	134.439860	138.632401	142.267599	133.443124	145.530070	140.345921	135.413986
716.000000	145.564336	139.816317	138.282751	134.014219	151.032401	138.941492	139.889977	141.718648	139.492075	130.260606	140.431702	135.813986	137.613287	128.059907	131.663403	136.242191	129.871096	140.538695	139.392774	137.365734
717.000000	141.968998	134.026340	135.515851	130.539627	144.501166	135.093240	134.339394	137.446154	134.553613	128.576224	134.485781	129.824009	133.809091	123.845455	124.460839	131.526340	127.675524	134.244056	133.512354	137.634965
718.000000	138.070862	129.547786	131.001632	128.355944	136.359441	132.811655	130.731702	131.676457	131.509324	127.071002	127.756410	124.067599	129.346154	120.448951	117.824709	126.662471	126.612821	127.856876	129.511422	136.721399
719.000000	132.390676	125.758741	125.227506	124.700699	125.723310	130.999487	126.192774	126.273193	125.442890	122.331329	120.758042	122.718555	125.447786	117.106480	111.577529	120.369697	122.783217	123.468065	124.174126	133.988834
720.000000	129.357809	122.140559	118.475991	123.611935	118.192774	127.500070	122.408065	122.514639	119.898089	115.713823	116.643217	120.988648	121.718228	114.569324	107.648718	114.809138	118.739114	119.721958	121.052448	127.778415
721.000000	124.892774	119.324709	112.249184	121.988648	113.553986	123.410536	118.769254	118.137063	112.768601	110.080093	111.578205	118.187226	119.739254	108.849277	107.169044	109.055035	115.955035	116.598811	118.122145	120.701585
722.000000	121.236737	116.992308	111.022657	115.912541	107.268298	119.508252	112.578112	110.376084	108.797902	107.844196	107.671445	113.551655	115.816807	107.755524	105.262471	105.533030	111.347716	112.258998	112.315734	111.363310
723.000000	117.598252	114.074033	108.487552	111.824779	103.991608	113.720256	106.800117	104.836970	105.164522	105.010000	103.679837	108.183007	111.575781	105.416737	101.515035	100.787972	106.600629	107.125198	109.919790	104.170723
724.000000	114.557413	110.650769	106.490233	106.800816	100.332541	108.603543	104.108462	99.780909	103.424639	100.746923	100.165548	102.289814	107.803147	103.682191	99.432448	96.665571	98.051678	104.193776	107.849417	97.265315
725.000000	112.272844	107.330932	105.760699	101.270256	98.560583	104.010117	102.391399	97.529138	99.796317	96.497459	94.720816	96.602214	104.234779	101.671702	94.583263	93.262797	94.147995	101.607552	103.463287	95.010396
726.000000	108.673613	104.027995	104.669138	96.703100	95.391072	99.590070	100.327436	99.018578	95.493753	90.088275	90.510396	90.114615	100.958345	98.950280	91.765315	88.931329	89.443776	97.507622	99.961981	90.939767
727.000000	101.216783	102.671492	101.202005	94.757110	93.205711	96.887203	98.194615	97.255455	93.572284	90.009394	86.575175	86.809091	94.803776	95.895548	86.834988	87.341189	86.729744	91.355012	94.953450	89.163473
728.000000	94.947179	100.815711	97.379744	93.126620	92.544709	92.977413	94.698438	95.611748	92.534872	88.580023	83.946131	82.886387	87.914382	91.871981	83.545338	84.812005	83.369650	85.882821	90.347902	89.299394
729.000000	88.367972	97.233939	95.204476	89.859953	91.044219	89.063916	91.512984	92.367622	89.959953	85.662797	81.926760	82.035524	84.006270	87.809557	81.213497	83.615828	81.042890	81.953706	85.325804	87.454219
730.000000	84.719790	94.190280	92.411702	87.383963	89.865152	84.194429	89.303333	88.759441	86.758648	82.827086	80.668881	79.201981	81.090746	82.651958	78.467110	83.950746	79.044872	80.411072	81.699138	84.792587
731.000000	81.927366	89.462471	89.426503	86.118765	88.301259	81.011632	85.164755	84.958741	83.719371	79.144266	76.312075	78.006014	77.993590	75.525967	76.623450	83.705338	75.583007	77.966713	78.649114	81.245198
732.000000	79.781492	87.554499	88.821841	82.631212	83.483869	76.914476	78.174802	78.176853	81.768951	76.295361	73.516200	75.903543	73.908275	71.293217	73.795012	83.937366	73.137179	75.908998	74.721282	76.521958
733.000000	78.497669	83.419044	87.303473	81.801469	79.840559	72.014848	74.455315	72.489767	77.775828	72.926061	69.852401	73.278019	70.646480	68.616503	71.532424	80.354522	70.209487	74.589091	70.746131	74.144848
734.000000	76.087040	78.799277	82.979534	79.373170	76.580769	71.286084	69.806131	68.074685	74.683823	70.446643	66.947692	70.792308	69.680699	66.823613	69.415921	77.229697	67.335198	72.396550	67.405035	71.410699
735.000000	75.516084	75.197949	79.555501	75.233100	72.831865	69.166107	67.750606	65.806084	69.498974	66.992890	64.054242	68.740606	67.614732	64.569161	67.940326	73.612517	63.915548	68.617343	62.703380	67.836270
736.000000	73.879138	71.871399	77.157599	72.074336	67.536340	67.484149	65.883473	64.509767	64.658718	63.713916	60.922378	66.405478	65.362424	61.879930	67.276900	68.510466	62.488065	66.212914	60.333730	63.894033
737.000000	68.817483	71.125711	71.297249	68.125641	63.581096	66.128065	64.421748	62.380466	62.678718	60.193916	58.662401	63.855641	63.089907	60.589277	63.906573	63.206900	60.825012	64.251935	56.558205	61.106410
738.000000	65.893916	69.769883	66.964312	65.719324	61.066876	64.047483	62.441096	61.646154	59.931562	56.757133	58.546107	60.377855	59.889091	59.355828	59.468252	59.004242	59.080699	62.462121	54.597786	58.600303
739.000000	61.954662	67.219930	63.178998	61.255991	57.040210	63.435594	59.570909	60.724685	57.785035	54.193403	57.476993	56.599231	58.676900	56.651166	56.969114	55.302634	57.228089	60.615781	52.954476	54.688438
740.000000	59.246760	64.546946	58.948252	59.490559	54.254266	62.577156	56.550653	59.587040	56.435408	50.638648	56.878671	54.521562	57.167203	54.720047	54.290023	52.195385	55.275152	57.739977	51.275618	50.551352
741.000000	56.446643	60.474079	54.638298	58.872541	52.214918	60.262354	53.281888	58.442284	55.538159	47.370373	56.716317	54.082028	56.589231	53.048065	50.797110	51.164965	52.190163	56.143613	51.182284	48.075641
742.000000	52.666853	57.920233	53.815105	57.381608	51.192424	56.882867	51.214918	54.903240	54.221072	46.361492	56.776713	51.176876	54.588275	50.634965	49.244709	51.239510	51.087855	54.872657	51.874452	46.361515
743.000000	51.165408	53.396550	52.905641	55.975944	50.783007	52.688415	49.951655	52.203823	52.131772	46.911166	56.409604	48.550606	52.475245	50.509557	47.426760	50.319557	49.002774	53.138205	51.093054	44.513636
744.000000	48.769814	50.479790	49.687133	53.199674	50.507413	50.400583	47.005315	48.885991	51.402914	48.705897	55.415594	47.789767	51.396970	48.959697	45.661072	48.411678	45.578159	49.867552	50.415548	43.680396
745.000000	48.103683	47.671002	46.826900	49.692424	49.618019	47.859464	46.161492	45.492494	49.662960	49.209441	52.983357	45.977040	48.932378	47.074569	44.574056	46.496643	43.314149	47.366247	47.968042	43.876224
746.000000	47.269674	45.309301	45.274918	46.553054	48.708578	45.402261	44.587086	44.258904	46.747529	48.232261	50.405851	43.462331	45.642028	43.200606	41.494848	44.248275	42.522028	46.454336	45.236760	43.621725
747.000000	45.735758	42.755781	42.501422	41.993473	47.596807	42.879277	43.641702	44.237786	43.338159	46.862657	47.557203	40.887972	42.378834	40.641352	38.465664	42.119138	41.630256	45.638438	42.203193	42.948881
748.000000	44.818648	39.505291	40.841958	39.221725	45.534336	42.065035	42.547786	42.764848	38.886154	44.137226	45.003520	38.662867	39.321958	38.717972	35.623543	40.149068	41.079650	44.673263	40.600956	41.582401
749.000000	42.975548	37.397319	39.529557	35.609744	42.885221	41.654429	41.470280	42.098345	36.955291	42.456061	41.101702	36.552075	36.071142	36.986993	34.727110	37.964965	39.718601	43.281981	38.206900	40.267226
750.000000	40.989441	37.268858	38.156550	34.843473	39.932751	40.673497	39.572424	40.633170	36.157506	39.342051	38.481235	35.436387	34.826270	35.383916	34.021562	36.362634	39.259138	40.514009	35.353380	38.766434
751.000000	37.926084	36.322261	37.709254	33.500093	39.096084	39.140816	37.522075	39.572611	35.619674	36.797879	37.095245	34.600303	34.837016	35.601678	33.004056	35.814895	38.676107	39.215711	33.724406	37.268089
752.000000	35.545851	35.743427	38.543776	33.117156	37.452821	38.179417	37.284545	38.161096	35.782121	35.337762	36.614709	34.091958	33.725035	34.638368	33.355618	36.112051	37.033800	37.771329	32.969021	35.946340
753.000000	35.118322	35.294872	37.936107	33.542797	36.395221	37.707249	36.600536	35.758858	36.160583	34.302261	36.575268	34.007016	33.927319	35.224126	32.188392	35.135734	33.697016	34.559347	31.292960	33.935105
754.000000	34.066340	34.058275	37.425245	32.175571	35.410443	36.679837	35.867040	32.330326	37.487203	33.688904	35.280093	34.661585	33.772284	36.009394	31.562075	32.147692	31.073893	31.430070	30.625268	32.963916
755.000000	34.012657	32.323846	36.508182	31.719930	33.835804	35.672634	35.581748	31.558811	35.469347	31.641352	33.774755	34.499324	33.726970	36.624802	29.441585	29.590769	30.333683	28.979627	28.802821	33.068741
756.000000	32.248159	30.311911	34.709814	31.626270	33.206434	32.358089	33.956667	32.467949	33.035315	30.204452	32.052028	32.640606	32.898671	35.274429	28.845012	26.933170	28.826597	27.702401	28.288205	31.127343
757.000000	32.023986	27.644779	32.394009	30.519814	32.963030	30.248741	32.034079	31.502401	31.475897	29.784802	30.721422	31.084872	30.780932	34.094452	28.336480	25.391399	28.086946	27.403753	28.049184	28.877995
758.000000	30.508159	26.762051	29.810583	28.743100	29.186946	27.653939	31.076853	29.345152	28.923753	27.823986	29.077576	30.039301	29.440163	32.858345	28.288065	24.176760	27.350559	27.101538	27.758928	27.692517
759.000000	29.055012	26.040140	28.488438	27.377925	27.695082	26.965711	28.881772	28.198555	27.237739	27.072494	26.861702	29.427925	26.853869	30.525991	28.246970	23.798951	25.578974	25.951329	26.310676	26.674592
760.000000	27.191072	26.317413	27.041329	27.315501	25.040862	25.939394	26.590233	26.188042	26.165874	25.751655	26.247249	28.443147	26.280559	27.123543	28.904033	24.170350	24.872821	26.280070	25.282494	26.255268
761.000000	26.348065	26.636247	25.961748	25.940746	24.477949	24.968671	25.297809	25.370816	24.851818	23.732587	25.154709	27.163497	25.631538	25.345664	28.021865	24.077366	23.398508	26.055501	24.805688	25.250723
762.000000	26.347156	26.103963	24.891818	24.499907	23.182821	24.313403	25.007739	24.275361	23.766807	22.341142	24.828834	26.318462	24.127716	23.383427	26.938625	23.901888	22.684079	25.973986	23.255874	24.792121
763.000000	26.785548	24.943193	23.569860	23.917226	22.909487	23.701002	24.092751	22.790233	23.371818	20.430606	23.117296	25.583986	23.002214	22.875874	25.870420	22.553963	22.145012	25.250583	22.395082	23.650210
764.000000	25.936061	23.224289	23.040140	22.592261	22.717599	23.185315	23.892098	22.010513	22.364266	19.921981	22.625618	25.071445	22.500746	22.335688	24.950303	21.410513	22.465571	24.656200	21.739907	23.199161
765.000000	24.365758	21.538718	22.395921	22.338695	21.811841	22.470047	24.013497	22.403497	20.929557	19.645804	21.461748	24.710047	22.154592	21.050909	23.544965	20.311818	22.243473	21.953357	21.211841	23.393730
766.000000	21.919161	19.672051	21.630280	21.690303	21.371935	21.851841	23.772191	21.477739	20.551445	20.176946	19.449814	23.314009	21.206643	20.612844	23.370140	20.234382	21.020210	21.475921	21.608159	21.798438
767.000000	21.459907	18.118788	21.025268	22.017692	20.341072	21.242517	22.671259	20.697040	20.678928	19.973217	18.842028	23.023543	19.925874	20.942308	21.663590	20.244382	19.895152	21.758765	21.203916	19.826061
768.000000	19.250326	18.287972	19.887273	20.815175	18.050979	19.747669	21.737179	20.067902	19.657389	19.613613	18.413893	22.666224	19.850583	20.404988	19.297646	19.593963	18.979068	21.049953	21.032005	18.828718
769.000000	18.016946	17.672168	19.480606	21.196550	18.474476	19.035548	20.033263	18.741585	18.555268	19.790956	17.693427	22.515361	18.768811	19.531259	18.383147	19.083590	16.566317	19.839930	19.258765	18.115664
770.000000	17.048485	17.199627	19.262611	21.076876	17.354149	17.769068	18.869930	17.225198	18.286131	19.571026	18.271352	22.002844	17.878112	19.301189	17.355221	18.636410	15.340280	19.029324	17.336247	18.602681
771.000000	16.332401	17.705455	18.329464	19.653030	16.960280	16.966653	18.367809	16.490545	16.754522	19.148345	17.285734	20.540606	17.936970	19.553893	15.569744	17.429114	14.056503	18.003403	15.387249	18.306597
772.000000	16.322098	17.621841	18.097809	18.652751	16.473240	15.816443	17.698625	14.557375	16.173599	18.007226	17.501981	19.752937	17.734639	19.378998	14.517599	15.524942	14.644988	18.071399	14.143427	17.589277
773.000000	16.659883	17.675781	17.947995	17.753706	16.067040	14.626023	15.806620	13.154392	14.994380	16.752121	17.204965	18.653916	17.674172	18.596107	14.471282	14.396270	14.613473	17.849487	13.834196	16.943543
774.000000	17.263543	17.657249	17.308951	16.231305	16.225758	14.131664	15.958275	12.089473	13.544881	16.783753	17.168601	17.429021	17.605734	17.829138	15.011282	13.926667	14.541235	16.380606	13.815781	16.630140
775.000000	16.837506	17.804779	16.847646	15.315431	15.988555	14.156466	16.220909	13.456793	13.736408	16.458368	17.045664	16.676690	16.141096	16.572727	16.096042	14.067692	15.552821	14.883385	14.836434	16.096597
776.000000	17.085152	17.439860	16.872587	14.273198	15.748462	14.330755	16.772937	13.817678	13.918867	16.596662	16.697249	15.855408	14.861259	15.742541	15.606415	14.836084	15.636107	15.209669	15.716014	14.556410
777.000000	16.299184	16.908019	15.598217	14.011800	16.082261	13.888657	16.681865	15.227114	13.679881	15.480531	16.856457	15.695571	13.985571	14.960629	14.708420	15.064904	15.608275	14.354692	15.602051	13.589557
778.000000	15.656760	17.014779	14.203054	12.636485	16.149240	13.724881	17.395282	15.605751	13.143436	14.043958	16.789790	14.979557	13.434009	13.287133	13.703291	14.657809	15.386886	13.987268	16.109371	12.745524
779.000000	14.748415	17.052354	13.655140	12.707902	16.016152	12.850068	16.943646	15.091753	12.339695	13.670023	16.569571	13.967086	13.171100	12.178368	13.365203	13.658834	14.343336	13.514156	15.217844	11.925758
780.000000	13.634033	16.286900	12.479674	12.046760	14.634765	12.269916	14.922107	14.975331	13.548685	12.448403	16.078452	13.395781	12.548035	10.918357	12.223361	12.509487	13.133627	12.450811	13.382098	12.299184
781.000000	12.735837	16.068340	11.246772	11.816550	13.884636	12.853746	13.924471	14.595832	13.236366	11.859193	14.991245	12.554336	12.154212	9.905688	12.226368	11.929347	11.801774	11.959459	12.469429	11.879790
782.000000	11.535347	14.778900	11.785221	11.739650	13.238387	11.754378	12.175671	12.415601	13.436890	10.379284	14.048669	12.621958	11.647615	9.766538	12.485014	11.275361	11.394163	11.590625	12.360163	12.339557
783.000000	11.266326	13.481417	12.705536	12.051911	12.416844	10.901545	10.419879	11.429291	12.781800	9.346149	12.977865	12.656466	11.505844	9.123077	12.376305	11.038159	11.978483	12.281916	12.271536	12.426946
784.000000	11.993720	12.513855	13.270371	11.439161	11.484441	10.676681	10.543587	11.131438	11.727473	9.178538	11.413238	12.215552	10.916100	9.523951	12.765536	11.871935	11.949730	12.901767	11.945650	13.041702
785.000000	11.600834	11.330779	12.421443	12.399138	10.818082	10.688930	10.022224	12.070168	11.105585	9.546569	11.419823	12.502664	10.711550	9.958042	11.697564	13.518998	12.583145	13.410963	11.698543	13.328690
786.000000	11.382105	10.831632	12.013485	12.711841	10.233040	11.030550	10.043441	12.078152	10.047042	10.147009	10.935200	11.614065	10.733946	10.323741	10.734371	14.710592	12.461653	12.400149	10.811632	12.656009
787.000000	10.292256	10.414096	10.928930	12.255972	9.820207	11.587821	10.348963	12.387720	9.487497	10.291890	9.531893	11.213760	10.712991	11.557678	10.137261	14.793459	13.285424	10.911886	10.529275	12.733753
788.000000	10.424012	10.368217	9.406413	11.692725	9.660965	11.584629	11.263676	11.946816	9.286809	10.244312	8.864261	10.384601	10.966937	11.119904	8.926876	14.359324	12.784821	10.210986	10.784592	12.175189
789.000000	9.825981	10.678217	8.811914	11.392359	9.502177	10.365520	10.624734	11.358576	9.211739	10.548534	9.004030	9.048256	10.800296	10.507445	7.411755	13.552401	11.130576	9.176786	9.810536	10.869932
790.000000	9.997252	10.803021	8.284506	10.081047	9.248583	9.475427	10.332459	11.010007	10.136436	9.151490	8.149471	7.813152	9.795776	10.365203	6.557182	12.301991	8.998413	8.431804	9.130068	10.938825
791.000000	10.146867	10.082089	8.260098	9.073427	9.307732	9.459786	9.759839	10.066510	11.103464	8.277061	7.038457	7.256228	8.061459	10.304401	6.811301	11.739960	7.007690	6.446762	8.541044	10.566872
792.000000	10.336991	9.350723	8.403070	7.913534	9.596685	8.464214	8.347904	9.202995	11.811998	7.783825	6.586005	7.508177	6.900515	10.381720	6.247476	10.704422	7.739760	5.450117	7.610473	10.355545
793.000000	10.556830	8.480273	9.798839	7.649956	9.969888	7.821779	7.588883	8.847629	12.277023	7.665674	6.863790	8.308851	6.414844	9.170368	5.155205	9.706664	8.498641	5.723765	7.192168	9.443937
794.000000	11.153790	7.694627	10.290331	7.059900	9.664536	8.321469	7.625627	7.561541	11.325119	7.965538	6.906974	8.653410	6.504902	9.173408	5.377172	9.215988	8.802233	5.739403	6.408207	10.043648
795.000000	10.382259	6.939058	10.557520	7.112697	9.099049	8.561193	6.694716	6.129837	10.905753	8.496107	7.175473	9.368606	6.668371	9.401963	5.482354	8.486128	9.307296	5.970860	6.402811	8.960711
796.000000	9.857098	7.091009	11.291117	7.358429	7.949170	9.463865	6.067611	5.304611	9.832226	9.632389	7.060758	9.813396	7.229464	9.899841	6.677993	7.513935	10.381193	6.206956	6.520014	7.948804
797.000000	9.280678	7.310104	11.624235	7.825153	6.683254	9.977777	5.600478	5.037614	8.623146	10.176001	6.782628	10.031326	7.746380	10.387765	7.936699	6.947998	10.934784	6.413914	7.096762	7.383706
798.000000	8.727720	7.409860	11.280103	8.507527	5.452382	9.718266	5.363105	5.521135	7.387254	9.632403	6.323093	9.926385	8.038361	10.733296	8.970739	7.037599	10.559312	6.496296	8.229727	7.604368
799.000000	8.272944	7.203797	9.981944	9.400210	4.407636	8.300664	5.425280	6.947462	6.233294	7.507056	5.664161	9.402559	7.924650	10.804000	9.492378	8.032021	8.846021	6.358664	10.015580	8.949741
800.000000	7.991070	6.505434	7.452986	10.497860	3.700098	5.340308	5.856790	9.508881	5.270007	3.305420	4.787839	8.363839	7.224490	10.467441	9.213881	10.180545	5.386154	5.905580	12.550993	11.758776
