Wavelength	Smoothed_1	Smoothed_2	Smoothed_3	Smoothed_4	Smoothed_5	Smoothed_6	Smoothed_7	Smoothed_8	Smoothed_9	Smoothed_10	Smoothed_11	Smoothed_12	Smoothed_13	Smoothed_14	Smoothed_15	Smoothed_16	Smoothed_17	Smoothed_18	Smoothed_19	Smoothed_20
500.000000	803.624476	800.723077	817.744056	814.888112	790.365035	828.717483	829.888112	810.955245	833.869231	816.419580	808.727273	811.763636	812.653147	817.668531	802.565035	803.942657	803.460140	815.627972	805.144056	819.022378
501.000000	830.846154	828.134266	835.249650	838.497203	824.573427	846.365734	855.665734	847.660839	853.789510	858.127273	834.705594	845.672028	836.288811	839.327972	835.425874	823.987413	833.527972	838.557343	834.781119	845.070629
502.000000	855.604429	852.474359	855.310023	862.563170	854.203497	867.551981	879.537296	879.996737	875.100233	892.191608	859.531469	872.327506	858.554545	861.346154	864.698135	846.287646	859.626807	861.313054	860.490443	870.130070
503.000000	877.900816	874.228089	876.791142	886.302214	879.791142	890.924359	901.599650	908.236830	897.008974	919.606876	882.954429	893.180886	879.432751	883.227273	890.494406	869.774009	882.198135	883.385198	882.713403	893.795105
504.000000	897.736830	893.880186	898.558974	908.930536	901.872261	915.131002	921.949650	932.655012	918.723310	941.367366	904.724009	909.682984	898.905828	904.475524	912.927273	893.377156	901.683450	904.263869	901.891375	915.660140
505.000000	915.113986	911.915385	919.479487	929.664336	920.982751	938.820047	940.684149	953.525175	939.450816	958.467366	924.589744	923.284615	916.956177	924.595105	932.109324	916.027739	918.524242	923.439161	918.465734	935.319580
506.000000	928.560606	933.720513	936.865734	947.075291	940.067133	956.236597	957.151282	969.730303	955.094172	973.603963	943.485548	938.268531	933.966900	943.862704	948.472727	935.905361	932.954079	940.811888	930.933800	950.658974
507.000000	943.622611	948.000932	950.882517	962.301865	955.825874	977.297669	973.705594	986.686014	972.085082	984.147552	958.621911	951.362238	948.176224	959.522611	958.426573	952.281119	946.516317	951.652448	946.824942	965.953613
508.000000	953.124009	961.327972	963.682517	968.377156	966.345455	992.712587	990.307692	1000.314685	986.024009	994.406061	967.328671	965.669231	962.824242	974.136131	970.761305	963.691608	957.410723	962.778322	958.220513	976.005361
509.000000	958.725874	973.348718	970.406527	974.294872	973.677622	1001.910490	1001.077389	1008.762704	1001.218881	1002.604196	974.368765	978.960606	973.597669	981.272727	978.446387	970.630769	965.415851	973.614685	970.017483	981.937296
510.000000	965.019347	982.024009	977.765035	977.919114	979.750350	1008.875991	1009.384382	1015.904429	1010.387646	1007.400932	982.452914	987.607226	985.964569	985.857343	988.055478	976.303963	975.544988	979.665967	975.327506	984.539860
511.000000	968.603263	984.118182	981.356410	980.411655	983.103730	1014.023543	1013.800466	1021.875291	1014.094872	1012.905828	985.995804	989.218881	992.436364	990.095105	991.036364	977.155711	982.820047	984.646387	982.102797	988.977156
512.000000	968.699767	985.106061	983.140326	986.064569	986.223543	1012.148019	1011.504662	1021.427040	1012.119114	1016.905128	989.990909	989.763170	992.712354	989.301632	994.711422	979.137995	983.287179	986.819347	988.575991	996.210023
513.000000	966.627040	982.788112	982.744988	990.099068	986.327972	1006.738228	1010.155711	1019.082517	1008.579254	1016.591375	987.382984	989.515385	990.550816	984.612821	996.222844	978.486247	984.993706	989.055012	990.503263	997.732867
514.000000	962.535897	976.685548	980.309790	990.108858	984.875991	1000.326107	1005.432634	1013.334499	1003.743823	1009.713520	985.617483	986.350350	983.799534	980.740559	993.441259	975.735198	985.963636	989.328671	990.247786	1001.756177
515.000000	959.086713	969.320280	979.372261	988.696970	980.812121	991.985548	1003.892541	1005.068998	999.394872	1007.227273	983.740326	981.430536	977.206527	978.715152	989.778322	977.713287	983.465035	986.018415	987.628904	1000.309557
516.000000	958.226573	964.869231	972.918415	983.616550	977.223077	982.990210	1001.204429	995.893240	991.050350	1002.273660	978.579021	978.051515	968.365268	975.759907	981.670629	973.122844	977.883217	978.814918	981.006294	997.349650
517.000000	955.408625	957.130303	964.105828	974.765268	966.215385	974.834732	993.438695	990.354312	984.145688	994.059907	972.962238	968.889277	956.584149	971.505128	972.497436	965.640093	965.579254	967.953846	972.906993	988.314685
518.000000	947.737063	948.236830	955.407226	961.865734	953.270862	962.355944	985.832867	983.352448	973.906527	987.540326	964.350350	960.546387	947.839860	967.090210	961.894872	952.864802	953.087179	956.862704	959.739627	975.811422
519.000000	938.158508	938.075524	940.483683	950.278089	940.434499	950.272494	972.795571	973.972028	964.766667	976.555012	950.266900	950.569930	938.379487	957.533800	948.742191	938.979720	940.881352	943.249184	947.199301	961.115618
520.000000	926.025874	926.129604	929.407226	936.194872	927.485082	941.489744	961.574592	964.155245	955.407925	963.261305	935.514452	938.229837	929.092075	945.903263	934.938228	924.413520	929.549883	931.965035	930.845221	945.768531
521.000000	910.642424	909.516550	916.375991	922.698135	911.389744	930.450816	946.573193	951.618881	938.908159	950.508159	921.082284	922.113054	917.037296	931.608392	921.013520	909.248252	915.330070	917.921445	918.109091	930.624476
522.000000	892.749883	893.226807	898.552681	908.425408	895.980420	916.673660	930.538695	936.363869	922.026107	935.141492	905.402564	905.214219	903.726807	913.062704	909.163636	893.785082	898.636364	903.648019	905.621212	913.015851
523.000000	874.132401	875.713520	880.829371	889.952914	879.074359	898.489510	912.352214	916.492308	904.985781	918.895804	886.085315	889.393706	889.449883	893.680886	892.605594	876.304429	884.445688	889.892541	888.633800	890.999534
524.000000	856.028438	856.580186	862.944988	872.036131	863.668765	877.913054	893.194172	897.986480	884.893939	900.725874	869.630303	872.617716	872.881119	873.616550	873.430070	858.281585	864.931702	876.700233	871.421212	872.758508
525.000000	837.425408	838.395571	845.626107	853.927273	847.124009	858.605128	875.735431	873.599767	866.027040	882.817016	851.054079	852.581352	855.509091	856.704429	854.942657	842.453846	849.688345	858.244289	852.236830	852.226340
526.000000	821.423077	818.896503	824.939161	832.952914	826.227273	840.118182	858.056410	850.270629	845.556876	860.829371	829.070629	829.675524	836.047086	835.426107	832.837762	823.656410	832.096037	839.591608	833.304429	831.624942
527.000000	803.621911	798.886713	804.485781	810.879487	804.274126	818.361538	835.950583	828.008858	825.125641	835.402331	813.701166	804.166434	813.091142	814.348718	809.732401	805.888345	810.401632	816.696737	813.864569	809.973193
528.000000	780.687413	777.893473	785.656643	787.589744	781.893240	794.016317	812.375291	806.143590	804.481119	811.752914	794.369231	781.732867	790.925175	794.875524	786.361305	787.912587	792.974359	791.554779	793.406061	791.340093
529.000000	757.346154	757.928438	765.700000	764.951282	758.621212	768.474359	788.659674	785.073427	784.308392	785.262937	769.657110	759.375291	766.301166	774.193939	764.424709	767.394872	773.084848	765.094872	772.224009	772.174592
530.000000	733.114219	734.213753	745.466900	743.149184	739.231235	745.795804	766.717716	762.951515	763.432634	760.896503	746.177622	736.690210	742.084615	752.688112	739.020280	745.450350	752.834499	741.830536	748.991608	750.889977
531.000000	711.262937	711.455012	723.634732	725.571096	718.480653	725.580886	743.512354	737.686480	738.952448	738.106760	724.141725	714.721445	716.691142	730.494639	718.836597	724.326107	728.182051	715.979487	725.621678	728.656410
532.000000	689.066900	688.352681	699.847319	699.686713	699.310723	703.967133	721.391608	714.762937	716.837762	716.524476	700.651981	693.206760	693.324009	707.816550	699.067133	702.077156	702.701399	691.181119	699.315152	705.099767
533.000000	665.865501	667.332867	677.191375	673.754312	678.900233	680.682984	696.298368	691.509790	694.035431	694.718648	677.018415	672.811189	671.531702	685.068765	679.501865	678.546387	677.549417	668.681352	671.545921	678.632634
534.000000	643.915385	644.771329	652.602797	650.617716	657.170396	658.720047	673.168531	668.985315	667.553147	672.044056	654.259907	653.842424	649.109091	659.313986	657.555245	654.261072	652.894639	645.704429	648.224942	653.344056
535.000000	619.771096	622.650117	627.739161	625.967832	635.172727	638.194172	650.144988	643.219347	642.880886	649.116783	631.247319	632.565967	625.352681	636.296270	634.798601	629.775291	631.006061	622.027739	625.842191	627.261538
536.000000	599.608625	599.609557	604.720047	603.007459	609.136131	617.674825	628.400000	620.140093	619.609324	626.791375	609.336830	610.726807	602.966900	612.064103	610.359674	606.960606	607.796037	602.746154	606.544289	604.084848
537.000000	579.317249	577.627972	582.163869	579.054779	584.463170	595.534965	605.477389	597.277622	600.563170	605.217483	589.847552	588.402098	580.496270	588.745921	587.713287	585.405128	583.330070	581.533566	587.090443	582.878555
538.000000	556.236131	556.229371	561.809790	555.269231	558.991841	571.740559	584.363869	578.076690	581.241492	584.040793	568.904196	566.434732	561.125641	568.044988	566.780186	563.594872	559.914219	559.682051	567.299534	561.155245
539.000000	537.318648	535.552914	542.345921	536.367133	536.427273	546.814685	563.682517	559.370862	562.184615	562.456876	548.117949	546.138695	541.824942	546.504196	542.979021	541.458042	537.312821	539.915385	547.877389	542.069930
540.000000	518.492075	513.856177	518.756643	520.900699	518.008392	525.539860	542.482517	538.950350	541.241026	543.564569	528.187879	524.181352	522.944988	525.475991	522.880653	521.764336	517.809091	522.782517	527.243823	522.762937
541.000000	500.496737	496.847319	497.831702	507.829837	501.672727	508.079720	523.825408	519.008625	520.030769	523.150117	509.677855	504.847786	504.472960	505.310256	502.418881	504.813986	497.182517	505.031702	506.949184	504.763869
542.000000	480.748718	477.019114	478.904429	490.364802	485.785781	487.538228	504.635897	501.717716	501.088112	504.263869	489.525175	485.761772	487.849417	485.297436	485.767133	486.171096	479.284149	488.240793	484.395571	488.396970
543.000000	462.532867	458.604196	460.788811	474.182517	470.496503	470.738928	483.775758	483.902797	481.520047	487.491142	470.168065	467.096503	471.533800	465.583450	469.035198	466.674126	463.600000	471.069930	464.889744	470.790909
544.000000	443.447552	441.283217	444.986713	456.154779	454.343590	451.914685	464.711422	465.155944	463.559207	468.107925	452.174592	451.800699	451.803963	447.726340	450.730303	450.628205	447.908159	454.594406	447.959441	452.879021
545.000000	426.231235	425.838695	429.198135	437.335664	437.412587	434.250350	446.144988	447.808392	445.650117	449.377855	435.548019	436.590443	433.202564	432.972261	434.319114	434.435897	434.397203	438.652914	431.560140	436.031469
546.000000	411.613287	411.171562	414.944755	421.244056	419.078089	418.715618	428.928205	430.389744	428.252914	432.491142	420.106760	421.054545	414.614219	419.589044	419.059441	418.893939	418.525874	421.502797	415.676457	419.933566
547.000000	397.159907	397.755012	402.323310	404.481119	403.149650	403.454312	410.517949	413.142890	413.561772	417.064569	403.438928	405.023310	398.437296	406.382984	405.930536	402.609324	401.555944	405.120979	399.853147	404.891841
548.000000	382.798368	384.811422	389.537762	389.169930	387.952448	387.946853	395.384149	398.866200	396.547786	401.659907	387.746387	389.757110	385.622844	392.584848	389.568998	385.686713	384.304895	389.928671	386.038462	387.326340
549.000000	370.570629	372.789044	376.154079	372.990909	373.468998	373.036830	380.854779	383.175058	381.687879	388.068998	373.109557	376.300233	372.596970	378.442657	373.437063	370.271795	368.935431	375.752214	373.238462	375.299301
550.000000	358.290676	359.913520	362.814219	357.489744	357.186247	359.487879	365.550350	368.773893	365.717016	376.193240	357.125641	362.256643	359.595338	365.479487	360.631002	356.270629	353.477855	360.339860	360.508625	360.319114
551.000000	345.144056	346.384149	350.774592	344.189510	344.537762	348.283683	352.831235	356.149417	350.582751	362.678322	343.712121	349.421212	348.214685	350.462238	347.759674	343.227739	338.690210	346.109324	350.055245	347.399068
552.000000	332.055245	331.469697	338.623776	333.282517	331.642191	336.251748	340.133100	344.182984	338.735431	350.124942	331.604662	336.545921	337.766200	335.316084	336.445921	329.905594	326.705828	334.501865	338.063869	335.294639
553.000000	321.031002	316.617949	326.069697	322.170862	319.921678	323.860373	327.506760	330.619580	327.263869	337.727506	318.540793	323.008159	328.289744	321.000932	323.982284	317.681818	314.292774	322.827739	326.306760	322.479720
554.000000	307.132867	304.359674	312.863869	309.269697	307.498834	308.495571	316.037063	318.633800	317.582284	322.521445	307.105128	310.921212	316.867599	310.813986	312.008858	307.470862	301.042191	310.794172	312.680186	311.921212
555.000000	294.528904	293.093473	299.118881	297.552914	294.713054	295.968298	305.838928	306.675291	302.047086	307.851515	295.537995	298.617249	305.193240	299.786946	299.262704	297.942424	291.273193	299.806760	298.754779	300.575291
556.000000	283.128438	282.598601	285.360140	287.353613	284.311189	286.190909	295.682051	294.276923	289.321678	294.812587	285.476224	287.662704	292.629371	289.707925	288.172494	286.681352	279.687179	286.410256	283.347786	289.179021
557.000000	273.053380	271.231702	272.853380	276.253846	274.599767	275.953380	284.459207	283.956643	278.067366	281.876224	276.163170	275.893007	279.193007	277.761538	276.630536	275.666434	269.083916	274.738928	270.865501	278.526573
558.000000	260.639394	262.286713	260.206061	265.330303	264.218415	266.326573	274.025641	274.009091	266.477156	270.378089	265.712587	264.053846	266.440793	266.414918	264.761772	265.389744	259.531469	265.695338	260.187646	267.070163
559.000000	250.387413	252.366667	248.434965	251.999534	252.663869	255.535198	264.984149	265.461538	256.858741	260.779953	255.540793	252.413753	253.345455	256.718182	254.500000	253.190909	251.526573	255.048485	250.650583	257.937063
560.000000	241.262238	243.987646	239.134033	238.718648	242.276690	246.253613	254.177156	256.001632	246.010256	252.015851	243.235198	242.454079	242.305594	248.330769	245.006760	242.828904	242.725641	243.670629	242.882984	245.738462
561.000000	231.280186	233.758042	230.183217	228.320047	234.959674	237.513054	244.253846	245.339161	236.495804	242.277622	233.805594	231.809091	233.274825	237.283683	235.382751	233.115851	233.372727	232.825408	234.907692	236.164103
562.000000	221.024709	225.574126	222.084382	219.428904	223.240559	228.190676	234.177156	234.645455	228.583450	233.415152	225.687646	222.769231	223.313287	226.739627	225.054312	223.315851	224.348718	222.890909	226.771096	225.692774
563.000000	212.495105	215.052681	213.943124	211.001632	214.049184	218.556410	223.576923	223.749650	220.573660	224.203497	215.859207	212.257809	215.234965	215.497436	214.606061	213.112354	212.966434	212.989510	218.214452	215.887413
564.000000	203.586946	205.898368	205.138928	202.654545	204.375991	208.406760	212.923077	212.923776	212.757343	215.943357	208.806061	202.852914	208.095105	207.720280	205.282284	203.552214	201.479953	202.814685	208.323776	209.265035
565.000000	194.877855	196.940326	197.141492	195.948252	195.844289	198.583450	202.710956	202.343590	202.474592	206.095338	199.347786	193.716783	200.550117	197.128671	195.451282	194.775524	193.194872	195.430769	197.951282	201.338928
566.000000	186.714685	187.750816	189.877855	188.595105	188.664103	189.996503	193.898601	193.512354	194.224709	197.238228	190.940093	186.226573	193.225641	188.554545	186.805128	185.004429	184.544522	186.975291	186.086014	192.793240
567.000000	178.632634	177.628671	181.935897	180.705361	180.515152	181.760140	184.911422	185.351282	186.899767	188.066434	182.648252	177.965734	184.281119	178.808625	178.532401	176.262238	177.625408	180.212587	177.061072	183.184149
568.000000	169.545455	169.543590	173.139860	173.886247	172.780186	174.145455	176.618648	176.707692	179.503963	178.506760	173.892308	170.567832	177.028904	171.512821	172.479487	168.861538	171.145455	174.706294	169.074359	174.400466
569.000000	162.597902	160.996503	165.122378	166.761072	165.104662	166.528904	168.434499	169.518881	171.838928	170.225175	166.132634	164.291841	168.553613	165.545455	166.623310	161.040093	165.919114	168.215385	161.953613	165.808858
570.000000	156.318648	154.708625	157.454545	158.951049	159.386946	161.059674	160.948252	161.295105	163.604196	162.724942	157.658741	158.537063	161.394872	159.730303	159.319580	154.872960	159.541259	161.532634	154.596270	157.717016
571.000000	149.273893	146.521911	150.409091	152.276457	153.082984	155.106294	154.499534	153.463869	156.693706	155.266200	151.358508	151.390210	154.117249	152.945221	151.760606	149.007692	152.021678	154.084615	147.771096	150.220047
572.000000	143.137063	140.107459	143.009324	145.904429	145.278322	149.026340	148.036131	145.119814	149.734033	148.684615	144.915385	145.558741	146.319814	146.499301	145.385781	143.017949	143.873893	146.380653	141.751748	143.595571
573.000000	136.739394	133.313287	135.015385	139.142424	139.639627	142.866667	141.601865	137.597436	142.219347	141.700233	138.924942	138.311888	139.125175	139.871795	138.183916	136.298368	135.158741	138.734499	135.323776	137.852214
574.000000	130.550583	127.872727	128.305128	131.402098	132.919114	134.853147	134.564336	131.091608	134.797203	134.612121	133.271329	132.124709	132.135897	133.544289	132.686247	130.760839	126.875758	131.758508	131.012821	132.337529
575.000000	124.206853	122.507273	122.639254	125.272587	127.168625	127.997483	127.261538	126.044988	127.457343	127.887646	126.737995	125.667133	125.574639	125.662704	126.262005	124.987739	120.903310	125.372960	126.363543	126.539627
576.000000	117.580420	117.063333	118.266853	118.490629	121.043566	120.672867	121.246760	121.757483	119.998508	121.894429	121.161072	118.925012	119.881795	120.854266	121.032960	119.092657	114.922821	118.640163	120.522378	120.259301
577.000000	111.732797	112.091049	113.186317	111.732960	114.732098	113.748205	115.423217	116.151632	115.284126	115.202145	114.955455	113.413753	114.824755	115.390303	115.711818	113.020303	110.600000	113.328298	116.366643	114.717319
578.000000	105.861305	106.832751	107.254825	106.707413	109.251352	107.545967	110.185361	110.674639	109.849907	108.797599	109.325035	108.122704	110.010629	110.440676	110.942448	107.259697	106.400280	107.931375	111.407110	109.401678
579.000000	101.099044	101.051072	102.039417	101.538252	104.400862	101.991072	104.180280	105.742751	104.163380	103.693986	104.789021	102.791002	104.831026	105.634149	104.998555	102.846620	102.797692	103.117040	106.080886	103.433147
580.000000	96.935198	95.504522	97.058415	97.210443	99.292354	98.114942	98.880769	100.540583	99.454033	99.680583	99.561002	97.397459	99.835851	101.229697	99.730932	98.256970	97.595082	99.033823	100.068298	98.704289
581.000000	92.334196	90.533823	92.879814	93.768065	94.427716	94.512914	94.370559	94.714709	96.277902	96.434033	95.060909	92.139091	95.345758	95.584779	94.679627	93.987319	93.486084	94.362751	95.169091	93.870723
582.000000	88.961772	85.863753	88.524872	90.542611	90.533520	89.812890	90.536573	89.209254	91.966270	93.222517	90.104545	88.373753	90.324149	91.167716	89.370956	90.019021	88.773497	89.818135	89.842774	90.595221
583.000000	84.847599	81.567343	84.115828	86.531119	86.820793	85.596923	86.800653	85.502657	87.585082	89.945408	86.578182	84.367762	86.063706	85.904149	83.173473	85.727249	84.952844	86.258182	85.441026	87.194033
584.000000	81.100583	78.070886	81.077739	82.439837	82.507110	81.973520	83.269720	82.602821	83.333753	86.041189	82.960699	81.723287	81.942448	81.073800	79.068135	82.676154	81.201655	82.119044	82.374312	83.888392
585.000000	76.900490	74.976037	77.464685	79.353683	78.549417	78.220699	79.742774	80.129301	79.611865	82.927483	79.893939	78.668695	77.822867	76.490140	75.353007	79.196247	77.645361	78.426993	78.436224	80.836527
586.000000	73.205664	71.649674	74.075221	76.057413	74.731329	73.930629	76.729044	77.749161	75.654103	78.974662	77.041142	75.557972	73.695851	72.987995	73.155524	75.625734	73.667179	74.751655	73.379557	77.771189
587.000000	70.071818	69.310932	71.109207	71.649510	71.266294	69.949674	73.639744	74.052448	72.354336	75.064312	72.750559	73.031492	70.035315	70.148438	70.393916	71.295897	70.757203	72.018322	69.690816	75.221329
588.000000	66.550909	66.549650	67.544406	68.977296	67.447179	66.561911	70.301818	70.322681	68.019930	70.539837	68.959114	68.688648	67.171725	67.187366	67.432704	67.007179	68.090979	69.247319	65.727343	70.745851
589.000000	63.393263	64.081725	64.296061	65.803310	64.664802	63.496573	66.619907	67.885035	63.992774	67.710839	66.289627	64.509697	64.533170	64.182541	64.515058	63.762867	64.814685	66.038368	62.477949	66.323683
590.000000	60.312960	62.219697	61.101585	62.846084	60.923660	61.663846	62.435501	65.001119	61.750303	64.602145	63.080186	61.309487	61.784942	61.397413	62.992214	60.159674	61.147249	63.010186	59.616783	62.731469
591.000000	57.583403	60.485874	59.010373	59.588998	57.823869	59.655058	59.278345	62.040583	59.800047	61.675035	60.004266	57.599674	58.960909	57.612727	61.009254	57.025198	58.531469	59.156993	57.389068	59.235478
592.000000	55.428298	57.096107	56.855035	56.351655	55.416970	57.334242	56.665291	59.752704	57.546807	59.255315	57.426923	54.672541	56.140443	55.163823	58.239767	54.450653	55.580793	56.059021	55.058531	56.343916
593.000000	52.053939	53.636387	54.800536	53.438998	52.863193	55.338508	54.868042	57.313543	55.024779	56.737413	55.375944	51.787366	54.706690	52.680886	55.959301	52.526853	53.818415	53.721725	53.200186	53.701958
594.000000	49.418298	50.928998	52.289114	50.284545	50.230956	53.339068	53.788928	54.437972	52.028065	54.243473	52.839674	50.037226	52.282028	50.831166	53.887552	51.107879	51.532121	50.884033	51.243869	51.237576
595.000000	46.215221	48.489371	49.983683	47.419930	48.008019	50.800723	52.229604	52.068368	49.557972	51.453473	50.179347	48.097786	49.895012	49.387599	51.512005	49.085548	49.024779	49.039394	49.214429	48.997995
596.000000	43.554359	46.140396	48.059347	45.698974	46.591865	48.190559	50.676853	48.475594	46.141748	49.172867	47.237995	46.105967	47.378625	47.853077	49.161632	47.408788	46.773566	48.048462	46.410047	46.753217
597.000000	41.737552	44.168019	46.501375	43.732541	44.663217	45.125431	49.456760	45.011748	43.250023	46.668928	44.369697	43.982751	44.984802	46.680629	47.298042	45.279441	45.276807	46.176923	44.336830	44.671865
598.000000	40.187855	42.611585	44.098392	41.960583	41.879977	42.601865	47.144918	42.536224	40.837902	44.234312	42.295245	41.482960	43.598998	45.273240	44.584382	43.086690	43.530326	44.101399	42.415431	42.252448
599.000000	39.011725	40.815361	41.454615	40.532914	39.838998	40.557646	44.216364	42.013054	39.439930	42.707436	40.989674	39.160816	41.520350	43.407319	42.707669	41.488811	40.878718	41.812937	40.496713	40.276737
600.000000	37.822075	39.378998	38.896177	39.368998	37.814569	38.884685	41.374918	40.781049	38.549371	40.870093	39.572005	37.734755	39.855058	40.978998	41.162494	39.731935	39.112844	40.124476	38.760420	38.702821
601.000000	37.349441	37.326014	37.506853	38.276224	36.193310	36.936783	39.416317	39.939091	38.033893	38.501538	38.459301	35.580280	37.939394	38.042214	39.388159	37.822937	37.353054	37.387529	37.346970	37.087716
602.000000	36.678951	35.597133	35.592284	36.758718	35.539347	35.922587	37.235035	38.533263	37.313590	37.082168	37.730723	34.387739	36.967156	35.439790	37.229837	36.002657	35.157855	35.536807	35.865245	35.595944
603.000000	35.088252	34.200490	33.469324	35.602611	34.196527	34.422960	35.255315	36.233520	36.019091	35.932587	36.522051	32.999534	35.348182	33.534988	35.469161	34.610932	33.967436	34.601142	34.920280	33.596713
604.000000	33.777925	32.463403	31.833147	34.299744	32.918625	33.736410	33.655315	34.682424	34.643357	34.779138	34.318182	31.832867	33.046364	31.200979	33.169837	32.714033	32.416131	33.458252	34.252657	31.592890
605.000000	31.878555	30.953963	30.417179	33.032424	31.775618	32.998135	32.461772	32.980559	33.793333	33.158578	32.045991	31.356900	31.664522	29.670303	31.279953	31.060793	30.930909	32.049464	32.318531	29.982238
606.000000	29.800000	29.716317	30.191748	31.604312	31.242261	31.658112	31.602681	29.904732	32.153800	31.573217	29.650932	30.312448	30.143800	28.232121	29.899464	29.848368	29.985711	31.103170	30.626876	28.970723
607.000000	28.071072	28.313310	29.237506	29.795291	29.814965	29.689953	31.138998	28.175245	30.662657	30.027459	27.720210	29.148205	28.947552	26.828462	28.213846	28.527459	29.094289	29.262471	28.916503	28.219674
608.000000	26.550793	27.115734	28.232657	27.612681	28.173660	27.384499	29.180886	27.069487	29.162774	28.588368	26.240536	27.903520	27.625478	26.321981	26.544103	27.126037	28.170536	27.511795	27.137832	27.153333
609.000000	25.388974	25.977552	26.952424	25.748858	26.687925	26.074709	27.254592	26.830350	27.602261	27.560163	24.934452	26.520163	26.211818	25.393170	25.745897	26.328788	27.177040	26.494639	25.593380	26.058695
610.000000	24.165548	24.877622	25.585851	24.329301	25.639814	24.685781	26.102401	26.382984	25.893660	26.258578	24.286224	25.132727	25.128765	24.845058	24.975897	25.132797	26.536783	24.881026	24.252005	25.405291
611.000000	23.079907	23.625734	24.363520	22.818275	24.522354	23.188462	24.940723	25.825245	24.788298	25.185105	23.361212	23.134545	24.233124	23.957273	23.753100	23.834522	25.352867	23.808438	22.946900	24.134149
612.000000	22.257716	23.401259	23.089487	21.735291	23.518322	22.513590	23.844429	24.812937	23.398741	24.546061	22.783427	21.717925	23.519977	23.467809	22.607506	22.427506	24.249068	22.945385	22.359837	23.015478
613.000000	20.996503	22.893473	21.574149	21.394522	22.164103	21.740653	23.004103	23.436294	22.140932	23.903217	21.851096	20.345361	21.948485	22.884755	21.592517	21.153357	23.219930	22.753823	22.061562	22.055408
614.000000	19.700186	22.257133	20.376667	20.607902	21.019207	21.240723	22.641166	21.995734	21.221795	23.335012	21.131399	19.504476	20.867273	22.057110	21.004779	19.488159	22.128788	22.041655	21.277949	21.160816
615.000000	18.674499	21.912494	19.429510	20.037319	20.227133	20.233869	22.558904	21.080629	20.540396	22.130466	20.398531	19.289720	20.331515	20.830047	20.373124	18.536900	20.911259	21.026434	20.225618	20.222774
616.000000	17.580350	20.896667	19.123986	19.133543	19.327483	18.973193	21.774359	19.957669	19.708718	20.680350	19.553380	18.531748	19.309720	19.122751	19.461492	17.636853	20.137110	20.116900	19.100676	19.642261
617.000000	17.249464	19.832564	18.272424	18.520676	18.233100	17.673706	20.417832	19.331795	18.770443	19.687086	18.776364	18.408228	18.311841	17.482751	17.882937	17.418834	19.387832	19.224522	18.298065	18.574359
618.000000	16.957879	18.744662	18.032168	17.827576	17.580326	16.491911	18.558625	18.975012	17.983520	18.620443	18.264242	17.777063	17.051795	16.831305	17.036667	17.018415	18.518601	18.230559	17.459674	17.154219
619.000000	16.859860	17.852261	17.663310	16.961189	17.073240	15.831445	16.834569	18.805431	17.017366	17.878252	17.555478	17.132331	16.207273	15.862308	15.932704	16.784452	17.486131	17.272821	16.629138	16.354452
620.000000	16.329930	16.615291	17.090699	16.285385	16.441608	15.451002	15.774242	18.643217	16.228695	17.047016	16.809814	16.590769	15.714569	15.874149	15.133240	15.988089	16.360256	15.916830	15.887529	15.979091
621.000000	16.000653	15.143566	16.140979	15.256876	15.647809	14.506737	14.737972	17.860117	15.613263	17.003753	15.690676	16.010904	15.325758	16.096527	14.452378	15.474872	15.273077	15.061492	15.193613	15.241026
622.000000	15.657925	14.278159	15.197855	14.942051	14.804848	14.540956	14.148858	16.843939	14.848340	16.497646	14.964149	15.268329	14.776527	16.444359	14.202914	14.923753	14.379021	14.205291	15.038205	14.720956
623.000000	14.892261	13.314545	14.134825	14.141818	14.234755	14.413800	13.464709	15.482611	13.896895	15.964079	13.665478	14.344611	14.229124	16.153683	13.832517	14.168601	13.134452	13.537911	14.854858	14.125361
624.000000	14.015142	12.780676	13.253427	13.176457	13.644988	13.842028	13.417599	14.099557	13.036848	15.330443	13.084382	13.632221	13.761210	15.645268	13.883380	12.945594	12.359720	12.394625	13.773925	13.456970
625.000000	12.859233	12.182541	12.858406	13.096457	13.125781	13.212145	13.358298	13.842093	12.029506	14.231002	12.291212	12.901189	13.164636	14.653217	13.940653	12.115664	11.783660	11.568681	13.068005	12.757133
626.000000	12.194303	11.730960	12.074436	12.763487	12.467538	12.980103	12.879138	13.031800	11.367548	13.079674	11.837967	11.707261	11.983730	13.444697	13.471585	11.597599	11.716047	11.024112	12.283972	12.478802
627.000000	11.662089	11.525103	10.976012	12.389149	11.832753	12.264974	12.137110	12.076252	10.692443	12.238727	11.352907	11.138671	10.842352	12.097037	12.945664	11.565110	11.747650	10.827972	11.640103	11.910422
628.000000	11.056844	11.276867	10.542037	12.154974	11.354079	11.594970	11.798145	11.196741	10.420534	11.151781	11.014629	10.325072	10.008963	11.188942	12.328089	11.205972	11.157012	10.700368	11.206928	11.334522
629.000000	10.909585	10.961879	10.313424	11.478613	10.941147	10.923732	11.348287	10.712434	10.076890	10.541935	10.424676	9.690023	9.430597	10.317380	11.663198	10.869622	10.685762	10.674942	10.980606	11.327492
630.000000	10.756923	10.335480	10.003084	11.073774	10.234343	10.587191	11.181399	10.474387	9.894186	9.841270	10.015951	9.669622	9.117159	9.922207	11.255352	10.626620	10.269688	10.289851	10.359107	11.330156
631.000000	10.519030	9.562671	9.334193	10.249951	9.720506	9.974890	10.681056	10.113091	9.804287	9.749016	9.517333	9.390336	8.720359	9.799240	10.664338	10.504207	9.541219	9.819657	10.068119	10.850548
632.000000	10.243667	8.852865	9.157359	9.766492	9.175520	9.975324	9.914627	9.835336	9.708259	9.757480	9.088953	9.008552	8.854121	9.514830	10.270960	10.272765	8.872135	9.596019	9.802862	9.993723
633.000000	9.719179	8.401846	9.111277	9.091923	8.818935	9.595935	9.633578	9.793520	9.189065	9.441392	8.307643	8.401585	8.665527	9.163410	9.804189	9.835503	8.578823	9.233674	9.608333	9.053627
634.000000	9.280298	7.752336	8.877098	8.531058	8.313009	9.218953	9.446608	9.746676	8.784107	8.869520	7.899448	8.444918	8.407268	8.724972	9.337117	9.231720	8.392723	8.391380	8.698592	8.311347
635.000000	8.876238	7.081676	8.961639	8.207881	7.971928	8.819387	8.945671	9.301949	7.998744	8.397490	7.574648	8.389893	8.132457	8.415776	8.744795	8.576925	8.264345	7.974287	8.360685	7.828152
636.000000	8.566564	7.115541	8.422133	7.967604	7.524387	8.390336	8.586795	8.868660	7.678466	8.302182	7.423483	7.894480	7.622825	8.027154	7.684245	8.127394	8.216172	7.324592	7.813152	7.576056
637.000000	8.232872	7.065333	7.483319	7.658713	7.221051	7.883823	8.188769	8.100385	7.551466	8.336317	7.191040	7.740371	7.245534	7.575620	6.864466	7.774545	8.016874	7.007655	7.129359	6.902513
638.000000	8.076501	6.928226	6.804776	7.302797	7.028326	7.515611	8.121396	7.429098	7.447681	7.958294	7.059319	7.392860	7.086128	7.180100	6.384240	7.195359	7.582634	6.551949	6.917685	6.370268
639.000000	7.844681	6.911986	6.517807	6.865098	6.940445	6.995734	7.480270	7.253562	7.268890	7.772979	6.734464	6.854172	7.049716	6.915336	6.189653	7.238128	7.035462	6.461214	6.728126	6.124995
640.000000	7.610900	6.715853	6.506159	6.477746	6.739790	6.492797	6.958196	7.120350	6.917005	7.255611	6.536634	6.460298	7.344760	6.633888	5.827000	7.264730	6.795427	6.236867	6.213042	5.677371
641.000000	6.844224	6.642508	6.269044	6.012410	6.473902	6.161860	6.331916	6.707981	6.556389	7.162361	6.447923	6.207417	6.954988	6.572977	5.632471	7.211163	6.449126	6.133280	6.238639	5.371841
642.000000	6.461380	6.533161	6.539245	5.720515	6.216291	6.041471	5.744149	6.555210	6.203361	6.860653	6.333620	5.965406	6.645056	6.398862	5.905275	7.059874	6.072888	6.012956	5.790720	4.984648
643.000000	5.863513	6.310438	6.317974	5.118937	6.069336	5.468200	5.794613	6.308096	5.819152	6.144170	6.235991	5.685902	5.988128	6.244100	6.431569	6.958846	6.128809	5.884448	5.764902	5.088091
644.000000	5.507727	5.756818	5.910848	4.836350	5.858615	5.457448	5.583133	5.939385	5.450387	5.541375	6.087753	5.503455	5.475657	5.770664	6.608082	6.448646	5.848091	5.731072	5.533529	5.391152
645.000000	5.530986	5.084352	5.832098	4.450636	5.468263	5.260016	5.333979	5.386510	4.972674	5.460324	5.889769	5.348322	5.190781	5.649932	6.391807	5.849963	5.820704	5.779378	5.217124	5.351117
646.000000	5.380422	4.854956	5.318406	4.278988	4.958084	5.327124	5.180177	5.340769	4.966028	5.577697	5.598564	5.089779	4.964515	5.320939	5.879490	5.536466	5.481354	5.400692	5.175061	5.235147
647.000000	5.578329	4.369476	4.818508	4.454503	4.777371	5.433268	4.963070	5.077205	5.033848	5.450993	5.395641	4.898688	4.850869	5.033086	5.543681	4.740189	5.371809	5.097828	5.218816	5.067252
648.000000	5.506767	4.044473	4.562587	4.628133	4.521436	5.244779	4.703625	4.952326	4.966762	5.239254	5.107911	4.563578	4.878620	4.956217	5.257611	4.221021	5.313128	4.804611	4.976336	5.172809
649.000000	5.203862	4.044769	4.617210	4.798844	4.330084	5.172636	4.377951	5.154527	4.846170	5.019939	4.666266	4.236739	4.998872	4.723716	5.028685	4.352145	5.161319	4.621198	4.896371	5.049065
650.000000	5.092963	3.906772	4.529979	4.528305	4.052166	5.082741	4.292322	5.228918	4.549128	4.794100	4.236811	4.140268	5.101534	4.455634	4.794228	4.309974	5.117070	4.558634	4.750252	4.673844
651.000000	4.645690	3.875023	4.177907	4.414233	3.789375	5.070238	4.295196	5.203688	4.511098	4.702613	4.144902	4.237131	4.575587	4.381858	4.853709	4.548464	4.925594	4.379254	4.645145	4.516385
652.000000	4.247580	3.879671	4.227699	4.284676	3.642177	4.743510	4.186182	4.928669	4.253263	4.389772	3.966776	4.094086	4.055795	4.325233	4.656662	4.648860	4.517818	4.260737	4.305016	4.319382
653.000000	3.908650	3.799620	3.986413	3.729674	3.856662	4.053632	4.439413	4.474620	4.260049	3.859385	3.978648	4.096333	4.037077	4.057179	4.693156	4.950324	4.402161	4.149688	4.224800	4.308058
654.000000	3.702138	3.942895	3.998862	3.674629	3.854704	4.005667	4.368692	3.888862	4.379793	3.755110	4.013783	4.004492	4.134396	3.705329	4.612928	4.736329	4.253021	4.128562	3.927163	4.241958
655.000000	3.823634	3.911793	3.973401	3.252583	3.900837	3.660422	4.095830	3.455585	4.326459	3.931228	3.807469	3.987804	4.234084	3.602413	4.363723	4.485061	4.124184	4.126855	3.711142	3.725431
656.000000	3.820776	3.754007	3.661345	3.214352	4.020904	3.466301	3.940205	3.045685	4.469949	3.860424	3.575152	4.006256	4.235765	3.219016	4.046599	4.085051	3.786520	4.214695	3.937166	3.444186
657.000000	3.974410	3.603147	3.407543	3.413587	3.989937	3.204779	3.989263	2.800301	4.432860	3.570420	3.555879	3.960275	4.254914	3.211326	3.836615	3.540026	3.851301	4.071096	3.892375	3.367503
658.000000	3.721420	3.536186	3.390604	3.492597	3.992331	3.135618	3.993322	2.576657	4.388531	3.626872	3.477797	3.948751	3.938357	3.164620	3.776357	3.521476	3.895711	4.210154	3.755294	3.531564
659.000000	3.713552	3.543200	3.377457	3.673070	4.086110	3.312932	3.990331	2.847823	4.367844	3.750191	3.240583	3.784895	3.731091	3.053333	3.811245	3.628338	3.772925	3.902671	3.580685	3.384112
660.000000	3.605566	3.425725	2.941946	3.702340	4.018676	3.557252	3.951867	3.024858	4.136809	3.796695	3.266855	3.733357	3.509301	2.966357	3.632662	3.699079	3.590804	3.744042	3.367515	3.308457
661.000000	3.351361	3.160392	2.784480	3.783466	3.956438	3.665340	3.954478	3.356699	4.200396	4.056399	3.293028	3.699009	3.123450	2.902909	3.834462	4.013748	3.466688	3.554911	3.279254	3.553203
662.000000	3.181699	3.283394	2.640744	3.813587	3.767371	3.657774	3.757869	3.454800	4.154436	3.884280	3.222676	3.535464	3.115401	3.160909	3.874545	4.202198	3.354711	3.357070	3.464166	3.390881
663.000000	3.304336	3.314280	2.799168	3.592881	3.841636	3.619930	3.702117	3.698040	3.943476	3.582263	3.120734	3.275958	3.401972	3.285914	3.883569	4.123529	3.437166	2.959730	3.445443	2.974956
664.000000	3.339191	3.352282	3.057124	3.573765	3.518035	3.550000	3.455783	3.621487	3.639301	3.813629	3.312329	3.005769	3.492217	3.358580	3.631823	3.909289	3.677354	2.713979	3.508622	2.840063
665.000000	3.379625	3.409156	3.362967	3.444068	3.312310	3.381515	2.917403	3.505557	3.394737	3.954629	3.437247	2.979242	3.549534	3.458310	3.409993	3.608131	3.549683	2.893203	3.608587	2.884142
666.000000	3.493007	3.374564	3.360837	3.342557	3.332627	3.179648	2.979946	2.953608	3.308725	3.800361	3.485168	3.071336	3.511741	3.431935	3.107291	3.230455	3.721781	2.992571	3.551427	3.041075
667.000000	3.385860	3.532040	3.341233	3.134869	3.204594	3.078152	3.176879	2.867618	3.179399	3.759862	3.539445	3.050667	3.192030	3.541970	2.935890	2.943126	3.992203	2.856196	3.433107	3.253625
668.000000	3.087044	3.497594	3.286897	2.919103	3.252268	2.946044	3.204869	2.874821	3.323832	3.680545	3.617620	3.230674	2.997128	3.449730	2.793172	2.733818	3.913531	2.924413	3.229858	3.437828
669.000000	3.030198	3.469527	3.034760	2.792809	3.442068	2.817354	3.189280	2.918704	3.352527	3.614772	3.552152	3.087606	2.876177	3.457415	2.728441	2.621762	3.645420	2.815991	2.807005	3.560455
670.000000	2.798872	3.252406	2.602655	2.711774	3.580937	2.633965	3.012002	2.798403	3.333007	3.540746	3.466653	3.117804	2.583529	3.173179	2.641571	2.568674	3.161988	2.742214	2.705550	3.507044
671.000000	2.606033	3.020786	2.559641	2.434317	3.588821	2.421054	2.877361	2.830471	3.215723	3.579329	3.259156	3.127378	2.522681	2.857876	2.953963	2.576995	2.846131	2.466960	2.689828	3.498678
672.000000	2.754618	3.043746	2.270646	2.510408	3.571044	2.300357	2.818203	2.933058	3.085706	3.134788	2.883618	3.008110	2.762329	2.761462	3.205079	2.432161	2.790494	2.731044	2.741431	3.099601
673.000000	3.093368	2.703135	2.393510	2.523620	3.451564	2.497536	2.663615	2.941086	2.876340	2.839508	2.706145	2.869900	2.811848	2.715865	3.133259	2.321189	2.698648	2.792056	2.661065	2.770669
674.000000	3.072641	2.544604	2.608946	2.612051	3.181834	2.643807	2.762091	2.878033	2.663918	2.737291	2.664163	2.641916	2.923373	2.473266	2.848457	2.491182	2.700028	2.842028	2.754012	2.663471
675.000000	3.148436	2.728555	2.854431	2.533848	2.961571	2.733152	2.659466	2.654888	2.666417	2.534075	2.691851	2.606958	2.899371	2.253138	2.807837	2.590016	2.343634	2.956916	2.541028	2.797788
676.000000	3.261219	2.627534	2.991126	2.465755	2.881233	2.698613	2.753450	2.294231	2.681063	2.362277	2.427152	2.509420	2.918683	2.047643	2.708956	2.443851	2.560828	2.786531	2.471212	2.747907
677.000000	2.953035	2.570047	3.136042	2.344287	2.600072	2.552026	2.829634	2.283219	2.685667	2.498755	2.283671	2.433452	2.616555	2.001702	2.557282	2.423825	2.601396	2.489396	2.427126	2.734788
678.000000	2.822138	2.466977	2.881576	2.038128	2.236359	1.973725	2.774261	2.119182	2.671019	2.257021	2.097937	2.360200	2.823131	1.943014	2.566000	2.212874	2.366888	2.367086	2.294308	2.704156
679.000000	2.359834	2.276643	2.438242	1.873753	2.067751	1.666846	2.563902	2.031897	2.684834	2.212925	1.787128	2.110403	2.684152	2.150762	2.685079	2.079156	2.348790	2.173387	2.258028	2.841608
680.000000	1.991762	2.005096	2.089450	1.799459	1.927336	1.314895	2.186632	2.018296	2.687552	2.248958	1.502655	2.022490	2.761203	2.112312	2.397520	1.840590	2.045741	2.013730	2.272128	2.701047
681.000000	1.693324	1.727839	1.854070	1.666079	1.727998	1.174967	1.903133	2.042378	2.431096	2.360410	1.492175	2.229373	2.952636	1.949928	2.562732	1.654821	2.045354	1.846016	2.236802	2.720464
682.000000	1.675963	1.618235	1.612991	1.664732	1.576098	1.005890	1.747077	2.104690	2.562203	2.222424	1.462028	2.310340	3.092886	1.926695	2.541909	1.522576	2.118431	2.149797	2.073476	2.668009
683.000000	1.688816	1.361035	1.437245	1.585145	1.468422	1.248846	1.626883	2.114221	2.577804	2.216375	1.601748	2.271387	3.066210	2.104825	2.415333	1.679695	2.096788	2.021277	1.977091	2.764040
684.000000	1.496632	1.560650	1.354401	1.591466	1.649242	1.443429	1.761762	2.170366	2.543436	2.184830	1.764310	2.086242	2.885573	2.130594	2.227508	2.046716	1.865107	1.674051	1.845895	2.566907
685.000000	1.659807	1.699608	1.242410	1.718326	1.878755	1.665235	1.904508	1.969711	2.351573	2.334552	1.992161	1.884235	2.478399	2.021497	2.113012	2.331189	1.552466	1.532902	1.500956	2.346522
686.000000	1.704830	1.569550	1.311830	1.845753	1.829373	1.672774	1.979825	1.751231	2.229182	2.428464	2.000012	1.735599	2.147284	1.792804	1.913720	2.302224	1.586077	1.327161	1.326848	2.014298
687.000000	1.773480	1.692364	1.258441	1.798214	1.840671	1.703214	2.055506	1.728310	1.941266	2.434697	2.129753	1.609622	1.527485	1.715832	1.724585	2.212308	1.441706	1.160312	1.085681	1.668441
688.000000	1.719305	1.939984	1.037830	1.768970	1.783867	1.548914	1.772023	1.438949	1.596494	2.312091	1.934282	1.281543	1.197844	1.575368	1.785874	1.922476	1.320816	1.320161	1.074786	1.560019
689.000000	1.761818	2.078874	0.840294	1.796166	1.630196	1.622834	1.517247	1.413918	1.542960	2.203823	1.810907	0.910995	0.895436	1.491725	1.687464	1.664387	1.344135	1.288135	1.141946	1.480322
690.000000	1.894417	2.146797	0.726960	1.799291	1.489340	1.702531	1.273490	1.690883	1.458462	2.091655	1.727427	0.822186	1.001163	1.307007	1.505988	1.628930	1.189741	1.471128	1.157716	1.385420
691.000000	1.772895	2.053685	0.731998	1.908026	1.349583	1.626366	1.092319	1.643555	1.416086	2.182753	1.555296	0.995664	1.169408	1.074128	1.591655	1.467907	1.017886	1.558548	1.370058	1.426156
692.000000	1.651676	2.096683	0.812336	1.721308	1.307653	1.245224	0.870284	1.790331	1.593816	2.088009	1.258883	1.072117	1.253522	1.205795	1.491821	1.325240	0.984417	1.694186	1.546928	1.430047
693.000000	1.327510	2.025762	0.884371	1.738042	1.262737	1.297009	0.715972	1.849753	1.424263	1.992585	1.186548	1.094249	1.542685	1.236343	1.481998	1.359296	1.025653	1.591520	1.714054	1.519569
694.000000	1.137895	2.133256	1.034834	1.696044	1.483033	1.206247	0.641294	1.742545	1.355643	1.875361	1.128804	1.028492	1.646471	1.485124	1.341443	1.441037	0.761664	1.513713	1.779373	1.568956
695.000000	1.203385	1.970501	1.162217	1.863040	1.625755	1.142156	0.668930	1.413061	1.006259	1.794653	0.942275	1.156380	1.520450	1.437732	1.195121	1.451168	0.876828	1.616900	1.683396	1.523396
696.000000	1.032340	1.573860	1.217371	1.951506	1.524291	1.223375	0.751326	1.076958	0.911175	1.475308	0.886112	1.200357	1.533485	1.511538	0.978070	1.410501	1.110767	1.466030	1.498779	1.472429
697.000000	1.126867	1.348096	1.226811	1.635765	1.647263	1.391196	0.931716	1.122249	0.931126	1.309399	1.087758	1.372767	1.224354	1.455734	0.907233	1.220988	1.152963	1.383543	1.321995	1.313347
698.000000	1.267531	1.177858	1.053897	1.673636	1.660217	1.378974	1.088858	1.005716	0.798879	1.309632	1.003869	1.374594	1.067389	1.286779	1.013683	1.062858	1.227170	1.463676	1.197755	1.302925
699.000000	1.546063	0.866904	0.860795	1.685047	1.522494	1.405303	1.245669	0.968408	0.824767	1.042007	0.992825	1.471604	1.105883	1.225329	1.296338	0.920084	1.223953	1.353042	1.073720	1.201685
700.000000	1.561310	0.747662	0.793793	1.773902	1.427112	1.407634	1.251571	1.285259	0.908105	0.945401	1.038641	1.468319	0.971413	1.166881	1.566825	1.062977	1.181333	1.394522	0.912333	1.216326
701.000000	1.359184	0.556154	0.967152	1.718266	1.248431	1.301890	1.331744	1.327723	0.936865	0.998303	0.956720	1.545275	1.093002	1.262855	1.489177	0.960737	0.835364	1.103727	0.848611	1.165079
702.000000	1.226657	0.585590	1.088403	1.681047	1.253977	1.159981	1.346310	1.483096	1.060790	0.871758	1.112711	1.592634	1.182573	1.421746	1.522354	0.871711	0.868310	1.021231	1.030044	1.180622
703.000000	1.161816	0.709688	1.187706	1.645501	1.234678	1.205487	1.195049	1.542473	1.003606	0.867049	1.173648	1.558172	1.338699	1.449408	1.423720	0.722138	0.866476	0.929841	1.079333	1.366830
704.000000	0.946503	0.982296	1.200800	1.537872	1.177186	1.170923	1.107117	1.484086	0.963480	0.780089	1.254429	1.424853	1.319345	1.751832	1.342133	0.738084	0.815937	0.863772	0.997107	1.669692
705.000000	0.878723	1.393172	1.137019	1.460028	1.140270	1.095256	0.893354	1.427848	0.979261	0.887890	1.163897	1.379273	1.250256	1.587669	1.119774	0.851746	0.995375	0.694751	0.873469	1.767028
706.000000	0.781960	1.574627	1.044737	1.243012	1.073469	1.188212	0.805263	1.341021	1.133615	1.023902	1.366235	1.095573	1.229340	1.686695	0.881156	0.861483	1.091536	0.528422	0.876410	1.737497
707.000000	0.979205	1.762660	1.027266	0.877079	1.262886	1.296224	0.796289	1.480888	1.334552	1.236674	1.535669	0.857089	0.842103	1.446515	0.790615	0.762580	1.132282	0.731205	0.863228	1.561590
708.000000	1.170625	1.811252	0.867643	0.898329	1.360678	1.271112	0.919501	1.312483	1.232869	1.449000	1.348711	0.831811	0.821103	1.395483	0.767310	0.779515	1.355389	1.068487	0.910082	1.296065
709.000000	1.217226	1.681958	0.868016	1.077503	1.299527	1.297021	1.028991	1.195166	1.116569	1.375690	1.141142	1.062555	0.746946	1.342070	1.034723	0.798900	1.359515	1.353249	0.961410	0.909023
710.000000	1.234720	1.628988	0.923403	1.179760	1.288128	1.386606	1.002371	1.319529	1.080944	1.307543	0.975904	1.140329	0.664734	1.152275	1.050308	0.932324	1.320294	1.399844	0.960737	0.602907
711.000000	1.354888	1.232888	0.937403	1.317998	1.190669	1.493424	0.957310	1.180639	1.085564	1.169590	0.763420	1.107711	0.801303	1.206744	1.085998	0.953126	1.156664	1.436324	0.980564	0.414963
712.000000	1.414655	1.124583	1.030371	1.474103	1.235662	1.479932	1.011030	1.063858	1.159779	0.822937	0.736967	1.243289	0.838037	1.150783	1.251611	0.873632	1.122991	1.530704	0.981883	0.378089
713.000000	1.562124	1.011177	1.035734	1.405690	1.162748	1.316019	0.958242	0.931056	1.157949	0.776660	0.636685	1.404741	0.807254	1.113664	1.363476	0.802683	1.011765	1.561674	0.955977	0.530984
714.000000	1.351844	0.995713	0.831993	1.460527	0.898485	1.253627	0.917695	0.928172	1.173559	0.638685	0.515760	1.456818	0.920462	1.030641	1.441415	0.821182	1.007625	1.451916	0.907608	0.635683
715.000000	1.299361	1.321392	0.707503	1.217464	0.754914	1.092170	0.798918	0.983669	1.269000	0.617268	0.560012	1.287212	0.926301	0.839175	1.187280	0.813275	0.788431	1.125632	0.969944	0.799918
716.000000	1.193464	1.216156	0.811364	1.057238	0.759949	0.947935	0.720168	0.798998	1.168163	0.571455	0.839280	0.885979	0.979450	0.768627	1.064114	0.816949	0.735678	0.927797	1.032019	0.807273
717.000000	1.169231	1.122918	1.010368	0.871869	1.041848	0.956648	0.623883	0.689821	1.080548	0.748317	1.117853	0.761807	0.771622	0.794408	0.988373	0.772545	0.645762	0.893793	1.096263	0.889457
718.000000	1.002548	1.199303	1.089065	0.759054	1.095058	0.781357	0.728569	0.803035	0.858308	0.775706	1.217807	0.782965	0.764005	0.973093	0.977846	0.812970	0.745350	0.712424	1.189312	0.811058
719.000000	0.891002	1.205214	1.116632	0.941093	0.981907	0.813007	0.934988	1.017219	0.807133	0.750093	1.241923	1.102247	0.827450	1.059716	0.886543	0.973739	0.750256	0.647121	1.119562	0.719354
720.000000	0.616476	1.111483	1.012911	1.014853	1.069252	0.942674	0.975310	1.158065	0.781098	0.762256	1.066068	1.356746	0.835142	0.946515	0.878550	1.002727	0.869072	0.488462	1.015956	0.640697
721.000000	0.671112	0.842049	0.835084	1.141415	1.099065	0.940510	0.888571	1.047177	0.814515	0.930149	1.076172	1.402895	0.850119	0.935522	0.851478	0.964079	0.944256	0.568557	0.879783	0.497627
722.000000	0.531704	0.973357	0.747033	1.123044	1.070611	0.798021	0.912956	1.260473	0.906361	0.899828	1.247016	1.564329	0.736315	0.940233	1.126620	0.891284	0.803096	0.658921	0.591580	0.514951
723.000000	0.639471	1.028014	0.588860	1.083037	1.003133	0.716126	0.673576	1.327660	0.880420	1.016914	1.167417	1.554252	0.827016	0.892797	1.338555	0.816753	0.768932	0.881037	0.595091	0.522084
724.000000	0.631772	1.055998	0.271531	1.119212	0.911373	0.931357	0.438795	1.546772	0.865170	0.967445	1.018305	1.316811	0.952240	0.871210	1.266538	0.753245	0.815047	0.950417	0.604352	0.414564
725.000000	0.789881	1.036145	0.242047	0.959923	0.946587	0.905424	0.396697	1.605396	0.813580	0.821142	1.352760	1.088198	0.982499	1.025594	1.176210	0.724294	0.683837	0.965170	0.533163	0.467298
726.000000	0.862079	0.890126	0.352193	0.897755	0.846170	0.843033	0.409650	1.438800	0.632825	0.896508	1.496790	0.838879	1.075219	1.035751	1.342497	0.758352	0.571100	1.218867	0.692576	0.423804
727.000000	0.923597	0.975490	0.609054	0.594436	0.931273	1.003671	0.517065	1.446890	0.487441	0.892319	1.478170	0.725098	0.874329	1.256573	1.305378	0.720517	0.413156	1.282096	0.805991	0.418830
728.000000	0.914730	1.236056	0.638599	0.495536	0.901226	1.070396	0.636760	1.584601	0.459179	0.781907	1.306566	0.547191	0.714455	1.228408	1.280702	0.728009	0.364070	1.059142	1.113935	0.442751
729.000000	0.891765	1.199277	0.705100	0.494350	0.918559	1.214667	0.959907	1.569676	0.641832	0.940170	1.007779	0.695093	0.633499	1.239751	0.938816	0.823685	0.482769	1.225636	1.207273	0.555534
730.000000	0.772984	1.092149	0.849345	0.361944	0.977569	1.158245	0.994200	1.279415	0.738503	1.105639	0.967462	0.807431	0.567186	1.137855	0.844723	0.655075	0.587606	1.263825	1.141424	0.655275
731.000000	0.749247	1.026802	0.769716	0.474044	0.942184	1.053042	1.125263	1.061503	0.733576	1.169923	1.028886	0.821037	0.705217	1.155259	0.750476	0.602765	0.700758	1.174070	1.243746	0.698613
732.000000	0.628725	1.030713	0.686166	0.645373	0.862774	0.876667	1.086399	1.178988	0.724897	1.107713	1.175741	0.840746	0.719755	1.178664	0.794641	0.510240	0.673219	1.001005	1.156098	0.881816
733.000000	0.620261	1.015895	0.675273	0.758723	0.886874	0.754790	0.908476	1.033322	0.652238	1.058811	0.927925	0.788848	0.958697	0.943886	0.743825	0.363909	0.798653	0.794762	1.110403	1.002401
734.000000	0.568231	1.019124	0.691727	0.853781	0.912974	0.658918	0.659429	1.043974	0.698911	1.114625	0.936545	0.529650	1.069186	1.087196	0.687177	0.550897	0.860874	0.605152	0.807263	0.900683
735.000000	0.686159	0.892848	0.797625	0.896205	0.890779	0.373093	0.689338	1.136345	0.722646	1.081455	1.141932	0.539240	0.936110	1.131755	0.889396	0.685399	0.826587	0.684196	0.496275	1.000779
736.000000	0.625207	0.833331	0.755916	0.925597	0.740140	0.525002	0.693557	1.203455	0.714007	1.257804	1.013837	0.665214	1.090800	1.151911	1.045632	0.881818	0.717702	0.885860	0.601529	0.946876
737.000000	0.504741	0.893781	0.809548	0.832872	0.600690	0.732793	0.805830	1.367366	0.726508	1.127452	0.821814	0.695431	1.069660	1.112807	1.022963	1.092147	0.492599	0.933203	0.496284	0.884159
738.000000	0.594650	0.880751	0.928340	0.812207	0.689065	0.883671	0.876998	1.346473	0.942566	1.024807	0.644037	0.838247	1.048709	0.888930	0.916837	1.192510	0.404112	0.823550	0.773399	0.887690
739.000000	0.648247	0.873380	1.045135	0.663399	0.687098	0.889956	1.040522	1.416618	1.065688	1.151529	0.548573	0.941841	0.992070	0.998692	0.822030	1.188331	0.408646	1.022786	0.777713	0.775876
740.000000	0.844352	0.893214	0.965545	0.383818	0.791508	0.733422	0.863779	1.167895	1.215946	0.979170	0.668781	0.954804	0.976828	1.106357	0.865387	1.290897	0.462345	1.174184	0.768480	0.630797
741.000000	0.815925	0.935629	0.800834	0.494277	0.833695	0.820427	0.898688	1.087105	1.183142	0.775396	0.588436	0.849026	0.990221	1.076727	0.792522	1.233846	0.581788	1.218956	0.814163	0.575678
742.000000	0.912639	0.895937	0.889380	0.512874	0.890186	0.695175	0.780902	0.978131	1.091559	0.606476	0.733781	0.849928	0.858189	1.090312	0.731543	1.157263	0.651751	1.136590	0.791490	0.552019
743.000000	0.852599	0.928415	0.904469	0.452061	0.864755	0.646408	0.723841	0.772774	1.055389	0.608520	0.644552	0.798228	0.678284	0.839221	0.761205	1.158888	0.866289	1.050988	0.751839	0.511441
744.000000	0.805219	0.994660	0.995322	0.492005	0.857699	0.500888	0.665443	0.519671	1.112093	0.626809	0.770429	0.626324	0.528035	0.922930	0.781329	1.245883	0.896184	0.980170	0.578387	0.480683
745.000000	0.893233	0.861851	1.061809	0.409434	0.816702	0.440981	0.719156	0.496487	1.096385	0.658338	0.878848	0.703492	0.368056	0.808214	0.862965	1.256357	0.933075	1.052012	0.655026	0.700200
746.000000	0.854385	0.765091	0.872935	0.380212	0.705228	0.644110	0.723420	0.451359	1.007552	0.721361	0.892839	0.742559	0.535399	1.015343	0.786026	1.263909	0.882142	1.043720	0.597317	0.831082
747.000000	0.782853	0.756040	0.736660	0.511641	0.538273	0.666874	0.772322	0.444254	1.067601	0.590890	0.981660	0.803604	0.616932	1.066541	0.628100	1.310333	0.781009	1.018142	0.708741	0.954688
748.000000	0.828769	0.677699	0.854338	0.649221	0.664830	0.785352	0.886720	0.379075	1.279821	0.491408	0.968438	0.912534	0.687133	1.140627	0.496760	1.205641	0.826429	0.832709	0.828862	0.988718
749.000000	0.786566	0.739168	0.777401	0.627988	0.566767	0.717012	0.915748	0.329513	1.322727	0.566333	0.941587	1.071734	0.645755	1.348441	0.508207	1.050643	0.770040	0.703781	0.934636	0.840865
750.000000	0.719051	0.687767	0.489921	0.601928	0.573904	0.604583	0.906266	0.217459	1.355921	0.463284	0.841888	1.080452	0.623503	1.433464	0.607597	1.025972	0.778166	0.691012	1.092879	0.801368
751.000000	0.474156	0.823522	0.387781	0.642336	0.516501	0.700455	0.971480	0.343159	1.111345	0.566790	0.675804	1.002012	0.600436	1.313322	0.559042	0.699415	0.610217	0.695529	1.067503	0.651594
752.000000	0.429807	0.869124	0.462734	0.509879	0.516138	0.766448	0.987340	0.442730	0.919473	0.584315	0.812709	1.017140	0.556776	1.101233	0.796196	0.620480	0.607026	0.541848	1.202385	0.609114
753.000000	0.324065	0.976184	0.492611	0.545261	0.513706	0.870911	0.997669	0.565068	0.668282	0.652077	0.839795	1.038790	0.487319	0.797275	0.800068	0.568431	0.564664	0.378552	1.234727	0.502028
754.000000	0.268963	1.006732	0.686135	0.616897	0.578186	0.723347	1.115497	0.542172	0.759235	0.680361	0.910231	0.844867	0.729615	0.825098	0.745904	0.445163	0.551816	0.264786	1.172301	0.494807
755.000000	0.333946	0.904035	0.654317	0.501769	0.627550	0.626322	1.085911	0.653706	0.774082	0.710953	0.796816	0.836746	0.790245	0.693441	0.657203	0.580082	0.579590	0.408732	1.075175	0.581277
756.000000	0.241597	0.923238	0.781005	0.449289	0.471669	0.746557	1.016904	0.505340	0.686480	0.612364	0.797986	0.834921	0.874869	0.819312	0.526702	0.705772	0.589438	0.509760	0.717028	0.517054
757.000000	0.395848	0.976520	0.925110	0.604545	0.521935	0.825779	1.024883	0.628191	0.789937	0.543823	0.728478	0.910557	1.026058	0.879338	0.326951	0.937711	0.760455	0.651023	0.716893	0.483664
758.000000	0.565035	0.806650	1.098674	0.678932	0.501953	0.792828	1.131545	0.816643	0.991012	0.736953	0.612338	0.947960	0.959378	0.921641	0.355035	0.978028	0.872620	0.722469	0.622844	0.420061
759.000000	0.549914	0.787380	1.068888	0.649520	0.420403	0.803380	1.129793	0.818070	1.047664	0.725510	0.553012	0.978138	1.020690	1.011189	0.390548	0.799452	0.872380	0.730765	0.636753	0.541389
760.000000	0.623175	0.743846	0.843436	0.594718	0.538767	0.828361	1.255198	1.055287	1.027240	0.746154	0.453562	0.945942	0.829054	1.005869	0.490732	0.851415	0.791618	0.883676	0.722410	0.635156
761.000000	0.675100	0.861860	0.798179	0.472513	0.788441	0.926674	1.288639	1.241683	0.755089	0.948023	0.323434	0.826769	0.672483	0.929953	0.451541	0.652841	0.578420	0.941599	0.684946	0.480177
762.000000	0.723417	0.765611	0.778744	0.271510	0.981590	1.025252	1.233918	1.334576	0.607760	0.904618	0.507592	0.681124	0.899939	0.904378	0.590443	0.625068	0.772604	0.875704	0.698515	0.694811
763.000000	0.750499	0.683175	0.850939	0.330473	1.106781	0.860399	1.293224	1.361713	0.572995	0.966051	0.758704	0.636107	1.013900	0.918772	0.668347	0.569399	0.707515	0.813298	0.630478	0.712168
764.000000	0.743200	0.598005	0.831079	0.433485	1.110811	0.621154	1.535942	1.262643	0.691212	1.122247	0.962420	0.320128	1.205790	0.940238	0.680420	0.494494	0.604168	0.705385	0.583841	0.818566
765.000000	0.700462	0.578156	0.818517	0.517177	0.937879	0.533779	1.571746	0.960900	0.716804	1.050044	0.967541	0.384751	1.256564	0.756021	0.656585	0.591021	0.655149	0.904627	0.691925	1.009795
766.000000	0.621520	0.510960	1.088096	0.557312	0.826317	0.499907	1.381189	0.679231	0.530019	0.967676	1.101858	0.494615	1.371049	0.661543	0.776268	0.518897	0.767508	0.978984	0.787737	0.968012
767.000000	0.911993	0.533846	1.169133	0.631967	0.794564	0.480573	1.204986	0.648026	0.500084	0.811259	1.191114	0.485152	1.363548	0.533240	0.797408	0.550811	0.955804	1.131238	0.964627	1.170084
768.000000	0.975044	0.495350	1.173890	0.757427	0.669632	0.298198	0.999865	0.520956	0.617650	0.941310	1.324184	0.540816	1.117953	0.421895	0.890953	0.537876	1.027580	1.256590	1.098352	1.286981
769.000000	0.929636	0.601207	1.057459	0.777821	0.506706	0.498280	0.751865	0.433937	0.538114	0.841296	1.222082	0.432897	1.010049	0.436902	0.971007	0.455786	0.999503	1.280098	1.218054	1.489534
770.000000	0.840830	0.695427	0.834839	0.788800	0.665935	0.570559	0.672133	0.484911	0.517790	0.928277	0.922760	0.497911	0.622580	0.563254	0.938543	0.714476	1.132145	1.182918	1.255408	1.396035
771.000000	0.833002	0.756492	0.759620	0.867259	0.776275	0.632848	0.670991	0.381408	0.497716	0.999879	0.930597	0.510809	0.384434	0.788890	0.793821	0.872501	1.161434	1.048974	1.347800	1.200168
772.000000	0.782888	0.757844	0.734949	0.849110	0.808890	0.585639	0.543699	0.355830	0.587548	1.017793	0.987140	0.478606	0.591121	1.074210	0.656336	1.088312	1.191131	0.998916	1.255590	1.229734
773.000000	0.791939	0.783587	0.732033	0.878149	0.783932	0.571016	0.737490	0.284166	0.699834	1.045618	0.988860	0.476245	0.551837	1.125678	0.582986	1.088047	0.921317	0.955322	1.056494	1.058413
774.000000	0.714704	0.853790	0.749170	0.924643	0.721662	0.722266	1.018413	0.281585	0.611879	1.199627	0.985107	0.633653	0.662995	1.053163	0.441040	1.069804	0.579639	0.801725	1.065028	1.169079
775.000000	0.642720	0.834807	0.905124	1.019517	0.546203	0.908308	1.112061	0.382730	0.668212	1.038352	0.974914	0.910138	0.715832	1.027410	0.541487	1.023431	0.536800	0.834967	1.256315	1.139326
776.000000	0.652932	0.705988	1.126506	1.011974	0.568268	0.936256	1.125907	0.556207	0.646133	0.902030	1.063378	1.048671	0.859431	0.792364	0.648170	0.825881	0.562424	0.718152	1.265352	0.997189
777.000000	0.889170	0.523515	1.161765	0.971266	0.462480	0.908671	0.957548	0.642291	0.704883	0.705263	1.201459	1.019888	0.857175	0.663655	0.661541	0.681214	0.682841	0.769886	1.148953	1.090000
778.000000	0.950925	0.454333	1.151893	0.950464	0.411478	0.836860	0.832497	0.738392	0.817343	0.826846	1.279718	1.139093	0.831578	0.447182	0.629620	0.578676	0.923028	0.861394	1.041851	0.971531
779.000000	0.953448	0.399886	1.105431	0.820634	0.262357	0.886639	0.799217	0.719991	0.858809	0.754874	1.114632	1.014014	0.906343	0.446371	0.781135	0.573273	1.019876	0.906585	0.850277	0.968897
780.000000	0.831089	0.497103	0.900047	0.713487	0.317410	0.811033	0.619618	0.695298	0.882888	0.899462	0.843881	1.014634	0.892597	0.466611	0.776956	0.594795	1.208816	0.932944	0.743725	0.815625
781.000000	0.962112	0.664541	0.736450	0.756033	0.319291	0.780221	0.622375	0.711576	0.885261	0.906138	0.852228	0.861487	0.821545	0.441385	0.674697	0.674667	1.326524	1.119089	0.684301	0.738634
782.000000	0.861089	0.926361	0.632932	0.709224	0.261578	0.933772	0.554249	0.694028	0.900825	0.862524	0.728394	0.627263	0.852135	0.377450	0.516821	0.604653	1.169576	1.280986	0.517159	0.592091
783.000000	0.847331	1.096932	0.415392	0.703023	0.452077	1.159984	0.703627	0.587501	0.905713	0.732238	0.633040	0.479413	0.749009	0.319096	0.412793	0.476275	0.937226	1.253711	0.445725	0.555394
784.000000	0.672730	1.243522	0.309737	0.617562	0.649723	1.299821	0.732112	0.717196	0.720336	0.710336	0.548056	0.530086	0.586098	0.282608	0.289506	0.517746	0.803294	1.061161	0.532643	0.608028
785.000000	0.521734	1.355613	0.354051	0.735872	0.780958	1.402921	0.732795	0.800597	0.706133	0.510322	0.492604	0.418336	0.382282	0.277800	0.411737	0.629538	0.712021	0.818284	0.678788	0.709804
786.000000	0.474368	1.279578	0.534217	0.785175	0.885508	1.302166	0.744632	0.786037	0.552382	0.414037	0.600811	0.364713	0.293753	0.191709	0.346170	0.882543	0.779597	0.601282	0.691828	0.605977
787.000000	0.484739	1.010219	0.519361	0.755399	0.914748	1.065795	0.777294	0.881308	0.518531	0.344226	0.565704	0.351774	0.199984	0.214883	0.234235	1.004730	0.957056	0.448886	0.689089	0.746291
788.000000	0.384452	0.812552	0.473564	0.798089	0.991382	0.887818	0.875942	0.940543	0.631897	0.234737	0.669189	0.531217	0.263809	0.209867	0.155492	1.150669	0.949347	0.280524	0.799783	0.774252
789.000000	0.381494	0.618445	0.431655	0.789755	0.973487	0.720324	0.832189	0.814704	0.751021	0.278748	0.783613	0.560720	0.409634	0.239886	0.162804	1.355937	0.890746	0.338084	0.857035	1.035893
790.000000	0.371755	0.436329	0.492385	0.889883	0.940774	0.551841	0.755082	0.715450	0.753653	0.495089	0.745751	0.737769	0.700462	0.350324	0.412107	1.311410	0.977086	0.442550	0.995907	1.159114
791.000000	0.554145	0.413189	0.603270	0.956760	0.861070	0.420478	0.980294	0.682995	0.657228	0.551748	0.795431	0.800984	0.888382	0.399643	0.653436	1.174634	1.257063	0.788149	0.997592	1.319886
792.000000	0.590816	0.362590	0.680350	0.905217	0.806636	0.555503	1.061030	0.702205	0.728653	0.565469	0.850105	0.875671	1.065152	0.503166	0.787270	0.915424	1.094476	0.931683	0.980979	1.133580
793.000000	0.709737	0.287490	0.852963	0.954273	0.937490	0.782524	0.949825	0.743695	0.719578	0.592378	0.937620	0.878620	1.030308	0.505671	0.800732	0.812177	1.194166	0.983867	0.925429	1.154021
794.000000	0.688417	0.364634	0.868424	0.748629	0.955049	0.900783	0.760657	0.769273	0.597401	0.653487	0.825809	0.873788	0.901800	0.490699	0.774040	0.832082	1.133427	1.080569	0.685655	1.049387
795.000000	0.793797	0.527888	1.106893	0.657606	0.873170	1.069326	0.609270	0.548077	0.571226	0.686427	0.611767	0.835469	0.861765	0.641527	0.833478	0.873135	1.217893	1.089585	0.614769	0.937881
796.000000	0.802226	0.637555	1.168524	0.452047	0.727016	1.154939	0.489818	0.541828	0.506445	0.656830	0.501487	0.829725	0.656191	0.730350	0.669497	0.953531	1.224112	1.077312	0.429110	0.642779
797.000000	0.791492	0.763188	1.137000	0.370421	0.577988	1.134244	0.457192	0.585338	0.488298	0.634379	0.437875	0.804777	0.448971	0.809853	0.521724	0.956343	1.224283	1.023036	0.338634	0.417775
798.000000	0.765536	0.904312	0.989942	0.501965	0.455301	0.969177	0.552928	0.684529	0.542592	0.638177	0.445007	0.749352	0.279392	0.869387	0.446464	0.824065	1.223592	0.925252	0.406862	0.348655
799.000000	0.728301	1.060455	0.704972	0.935916	0.388168	0.621678	0.818559	0.845322	0.695133	0.687329	0.546958	0.652175	0.186741	0.898301	0.500021	0.499196	1.227224	0.782455	0.697315	0.521203
800.000000	0.683727	1.231140	0.259713	1.761510	0.405804	0.053685	1.295622	1.073636	0.971727	0.800937	0.767804	0.501972	0.210308	0.885944	0.738699	-0.075769	1.240364	0.593140	1.273510	1.021203
