Wavelength	Smoothed_1	Smoothed_2	Smoothed_3	Smoothed_4	Smoothed_5	Smoothed_6	Smoothed_7	Smoothed_8	Smoothed_9	Smoothed_10	Smoothed_11	Smoothed_12	Smoothed_13	Smoothed_14	Smoothed_15	Smoothed_16	Smoothed_17	Smoothed_18	Smoothed_19	Smoothed_20
500.000000	8.520168	6.364692	8.564965	5.597678	7.458636	8.980448	9.311091	1.938615	6.146483	5.066217	5.910049	4.334133	8.535972	4.384860	6.531846	5.094154	7.121727	5.944343	5.677203	5.015406
501.000000	7.541993	4.967490	7.794133	5.432531	9.185007	6.564895	9.025273	2.224273	7.911007	4.817762	6.930944	4.798336	7.248923	5.214769	7.263042	5.740021	7.125776	8.490224	6.174552	5.941671
502.000000	6.746207	4.431804	7.646044	5.463056	9.892634	5.332228	8.760697	3.154641	8.863042	5.005748	7.852543	5.676667	6.776618	5.879189	7.693030	6.389161	7.209590	9.530324	6.575993	6.560646
503.000000	6.126422	4.579428	7.903876	5.647885	9.789282	5.024515	8.517682	4.525601	9.169404	5.494817	8.646886	6.783139	6.924457	6.376838	7.883815	6.977966	7.339126	9.461203	6.896075	6.885192
504.000000	5.676247	5.232152	8.350807	5.945650	9.082716	5.383823	8.296545	6.133035	8.996911	6.149611	9.286012	7.931765	7.497841	6.706436	7.897399	7.442830	7.480343	8.679420	7.149347	6.928175
505.000000	5.389294	6.211767	8.770012	6.314986	7.980699	6.152219	8.097606	7.772823	8.512380	6.834772	9.741960	8.936557	8.302172	6.866702	7.795786	7.720145	7.599198	7.581534	7.350361	6.702457
506.000000	4.715951	7.266790	8.083378	7.218895	6.727070	6.396590	8.192576	9.126273	7.970198	7.064828	9.679510	9.334576	8.761119	6.970205	8.258706	7.031119	7.075119	6.883548	7.505928	6.058674
507.000000	5.307928	8.315051	7.568720	7.093415	5.566357	7.914949	8.142660	9.710247	7.300620	6.901308	9.852746	8.693993	9.637364	6.322093	7.558767	6.982457	7.638464	7.370907	7.597093	4.956641
508.000000	5.895559	9.005713	7.598886	7.164531	4.889179	8.061002	7.462054	9.842149	7.252240	7.249942	9.456098	8.429105	9.677459	6.086487	7.095704	6.665098	7.936531	8.053375	8.107336	3.775455
509.000000	6.498552	9.374739	6.752587	6.815776	3.156268	7.936133	6.595247	10.510676	7.069688	7.858953	9.467100	7.775499	9.506492	5.817212	6.522804	6.838207	7.908725	7.953186	8.969051	3.917149
510.000000	6.926690	9.889662	6.527772	6.620830	3.362797	8.324347	7.028578	10.536548	7.676869	8.054951	8.922466	7.641718	9.246063	5.397685	6.637963	7.400093	8.735319	7.800834	8.025855	4.537671
511.000000	7.151333	9.049935	7.086403	6.312168	4.194807	8.843497	7.385762	9.694573	7.371200	7.843156	8.082881	7.286177	8.325417	6.345865	6.652179	7.854634	8.773970	8.035205	7.665154	5.596890
512.000000	7.471091	8.312394	7.051219	7.134133	4.591270	8.745058	7.181128	8.690422	7.915175	6.412305	7.452657	7.301303	7.687634	6.437510	6.992294	8.304378	8.335704	8.951186	8.151117	6.934986
513.000000	7.722737	8.451851	6.163702	8.006814	5.097998	8.687483	6.913462	9.285245	8.245079	6.579450	7.504844	7.506909	7.456557	7.160823	6.558235	7.749128	8.751098	9.042979	8.313783	8.071993
514.000000	8.007217	7.572392	7.240585	8.109336	5.496131	8.656490	6.599124	8.724023	8.421935	7.227431	6.267282	7.597690	6.802408	8.526103	5.381774	7.665620	7.957026	9.235928	8.132580	8.917261
515.000000	7.531112	8.463394	7.381541	8.845028	5.987930	8.347834	7.371970	8.560578	7.679100	7.768354	6.488587	8.161524	6.135627	9.422121	6.318513	7.553662	8.035382	8.826340	7.064795	9.042072
516.000000	6.891867	9.161918	7.219284	10.347660	6.432676	7.448100	7.922748	8.086336	6.922643	7.509438	6.922096	8.543909	5.836326	10.282128	6.358823	6.734266	7.605585	9.310711	6.954816	8.906527
517.000000	7.247014	10.466692	8.004401	10.573065	5.715790	7.001981	8.507396	7.672499	6.462480	7.961643	7.978138	7.865214	5.242932	10.675131	6.912865	7.041107	8.664571	9.771047	6.731865	8.149643
518.000000	8.738872	10.850089	9.050068	10.389009	5.807233	6.291431	8.397981	8.102538	6.337497	8.499282	8.270403	8.699224	6.175825	11.111667	7.102093	7.079921	9.313429	10.389867	7.696774	7.799375
519.000000	9.372608	10.925263	9.694604	10.413249	6.453641	7.318869	9.111396	8.809403	7.508219	9.106872	9.212688	9.547326	7.747949	10.818254	7.858513	8.239331	10.058879	9.899021	8.413921	8.747033
520.000000	10.172543	11.841543	9.438061	10.822720	8.024562	8.692168	9.642179	9.732368	8.745438	10.015420	9.891548	10.196326	8.494984	10.209315	8.687552	10.601207	11.521760	9.710765	8.191347	9.535867
521.000000	11.585317	12.372564	10.881361	11.231510	9.376098	10.617392	9.439291	9.709571	9.080380	10.799578	10.392177	10.854629	9.439702	10.190608	9.644359	12.469431	11.452103	9.381520	8.879114	9.227984
522.000000	13.293221	12.508753	11.675620	11.774995	11.207333	11.009538	10.406291	9.781583	10.511126	10.747054	10.394573	12.243338	10.860308	9.394464	10.529105	12.747991	11.611378	9.475506	10.317615	9.868995
523.000000	14.289168	12.522214	12.528422	12.227361	12.612305	12.181469	11.455110	11.221772	11.850387	11.915434	10.514587	12.769681	11.741788	10.406235	12.565133	12.021347	12.946494	9.387473	11.299368	10.823121
524.000000	15.182625	11.924249	14.843690	11.462592	13.705054	14.139692	12.368855	12.126751	12.800657	12.680177	10.890093	13.137881	13.341373	12.095793	13.364716	12.927175	13.430862	10.024117	12.833692	11.016231
525.000000	15.246550	12.075170	14.923159	13.122219	14.758541	16.286240	13.616350	12.653072	13.884848	13.611091	12.367739	13.567951	13.739928	12.805289	14.798923	14.045179	13.661235	11.529427	12.562685	12.329107
526.000000	14.873427	13.197886	15.672063	14.367557	15.903338	16.284517	14.885741	12.611855	14.069184	14.812671	13.351166	15.120289	15.132732	14.015592	15.195002	14.748625	14.506340	13.426186	14.186904	13.491800
527.000000	14.738275	14.550531	16.706634	14.857156	16.071911	16.966597	16.292671	13.326937	14.906434	16.323767	14.730956	15.561958	15.873562	15.677422	15.872508	15.584009	15.222517	15.656746	14.497182	14.253930
528.000000	14.709744	15.622445	17.302147	16.080793	18.193124	17.999907	17.754685	13.947823	15.692471	17.939441	15.551818	18.817832	17.628550	16.663611	15.917902	17.802448	15.630909	17.510592	16.742834	15.268009
529.000000	15.638555	18.306256	19.197497	17.618531	20.094895	19.084266	18.829394	14.816284	17.844359	20.554918	17.367179	21.576503	19.452350	17.967189	16.497366	20.084522	16.568578	18.952047	19.218322	16.671319
530.000000	18.873613	21.057573	20.119231	20.066620	21.713240	20.743427	20.397995	17.359245	19.680350	22.332821	20.133613	24.577203	20.231888	18.843100	16.791935	21.912448	18.016317	20.133361	20.839604	18.280410
531.000000	20.103263	22.928541	22.255291	22.577576	21.918089	21.616387	22.247552	19.038834	21.820350	23.484615	21.448392	25.968904	21.118298	21.983730	18.732797	23.061119	19.440979	21.643385	22.126573	18.658834
532.000000	22.555198	24.986410	23.911725	24.597156	23.487646	22.171748	24.239394	21.326597	23.384895	24.852214	24.191072	28.060746	22.470956	23.954476	21.488531	23.477366	21.627832	21.801911	23.786340	21.170047
533.000000	24.715338	28.026247	27.035035	26.296946	23.604359	24.294429	25.376737	25.080513	24.901399	26.806807	26.826200	27.748811	23.992284	26.491305	24.768298	24.253077	24.575641	23.028042	25.203683	23.939277
534.000000	25.774452	29.685804	30.026037	27.466200	25.105711	27.778531	26.056760	26.915385	27.512075	27.532681	30.556434	27.943310	26.980956	28.236550	25.991632	25.632494	26.371818	23.860676	27.103566	26.589580
535.000000	27.179627	30.713217	30.758881	30.391981	26.402121	31.174429	27.579837	28.650326	30.392261	27.729184	32.572378	27.844289	28.095734	29.206270	26.868042	27.870466	28.252937	26.370117	28.418928	29.457506
536.000000	28.306247	31.014918	31.261585	30.612587	28.093986	33.718042	29.639021	29.372308	31.802517	28.496713	33.023450	28.837995	29.411888	30.626294	28.207949	29.438182	29.514079	28.359254	31.215198	31.720186
537.000000	29.196597	31.915268	33.171445	31.110000	30.191352	36.833963	30.920536	31.053916	34.114639	29.238834	33.294522	29.529347	30.273263	31.236294	28.329883	30.837599	30.872261	30.800303	32.897925	32.859114
538.000000	30.969417	32.908345	34.108555	33.269254	32.354056	37.935012	33.267249	32.308228	35.595291	31.704522	33.313916	33.325012	32.123869	32.298275	29.702960	34.526434	32.536993	33.174056	34.722168	33.311189
539.000000	33.240420	33.998182	36.199371	33.735291	34.898858	37.915455	34.053613	35.700862	36.553800	33.874895	33.987576	35.728858	34.364079	33.643193	30.547319	36.343916	33.805874	35.420443	36.361795	34.022191
540.000000	36.732774	33.778392	36.802284	34.900303	36.684615	40.105851	37.929487	39.263986	37.360163	34.190000	34.563287	38.746667	36.863613	36.299627	33.183380	38.669254	36.584242	37.256643	37.948135	34.945338
541.000000	37.898112	35.316713	39.585198	36.649720	37.895548	41.121585	41.147226	41.932284	37.861562	35.740559	35.729744	41.147319	37.905524	41.367949	37.291911	40.397016	39.488834	39.983473	40.045571	36.550723
542.000000	39.916294	39.212238	42.179301	38.096061	40.482960	43.217179	44.327949	45.645431	39.462517	39.050233	38.266503	42.292611	41.181445	44.681352	41.701608	42.868065	44.347925	42.473100	41.347366	39.557576
543.000000	41.916573	44.227203	45.090886	42.140070	43.640047	45.301725	46.633846	49.332541	43.290233	43.523753	43.048205	45.206737	43.987646	48.614476	45.820979	48.061958	50.472821	45.514429	44.274033	43.974779
544.000000	43.977739	49.062587	46.942797	46.217972	48.545221	49.240979	48.191841	52.472284	48.441282	49.756224	49.479347	49.479371	48.966410	52.653170	48.608252	51.025268	54.960023	48.800256	47.677622	48.036550
545.000000	48.167273	55.512611	49.623170	50.996713	52.146970	54.386690	51.907552	56.811352	52.176014	54.555944	55.018648	52.657366	51.593636	56.662727	51.960956	54.262587	58.642238	53.172634	52.815548	53.488252
546.000000	53.757879	59.955688	53.886527	56.423986	57.858788	60.468625	55.882005	60.355571	57.930373	59.250000	59.791119	56.180000	54.274522	60.330676	56.573986	57.304755	61.898904	57.514009	57.925711	61.256317
547.000000	59.745012	64.681911	58.758928	62.694219	63.259860	64.477949	60.693706	63.070653	64.985851	64.310047	65.139720	61.373310	59.130186	63.971166	61.614802	59.689580	67.648578	63.453427	63.647529	68.023730
548.000000	67.251935	67.848695	64.172937	70.102517	68.702517	68.427436	68.313357	67.992261	71.577203	69.268019	69.850536	69.082867	65.313776	68.621841	66.738392	62.914569	73.213357	69.320956	68.621166	73.232261
549.000000	74.122751	71.782821	69.247389	77.284965	73.457249	73.763800	74.549580	74.196993	78.045105	74.154056	76.311795	75.934872	72.293077	74.650979	73.152704	70.011352	77.947739	73.664359	74.103147	77.333427
550.000000	81.613193	75.845408	76.061515	83.185105	79.810326	79.917529	83.207576	81.476154	86.286177	79.283287	83.035035	81.648601	79.903100	81.597832	81.101119	76.557016	85.625618	79.979674	81.495315	82.341119
551.000000	87.640816	83.324872	84.922751	90.440070	87.557110	86.602984	90.998928	87.119254	90.813380	86.691235	90.002075	87.307786	85.816550	88.090513	88.922867	83.996247	93.028974	86.841515	89.058765	87.828135
552.000000	95.683730	91.589347	92.982587	98.617622	95.387389	95.918275	100.606620	93.477506	98.007296	92.484056	93.642634	91.002611	95.033636	94.438019	96.367389	94.253403	102.654033	93.807343	95.299417	93.830932
553.000000	103.682494	98.976783	99.601469	106.736853	103.222214	103.103030	107.830816	103.148788	106.384149	100.672541	101.808345	99.560629	103.331632	105.514266	103.729953	104.439627	112.075758	102.071888	103.909441	102.216690
554.000000	111.491469	108.111189	107.747739	114.474266	111.415478	112.059068	114.385385	113.144079	112.289534	110.976900	111.997855	110.196247	113.672890	115.661958	110.244009	112.727739	120.101585	112.672751	111.041818	108.494476
555.000000	121.728998	117.764569	119.775781	122.351958	119.020676	119.358741	120.261469	123.142890	118.418252	121.563403	122.599417	119.287646	122.147249	125.083124	121.930583	122.799138	127.642191	122.468765	118.048065	117.500350
556.000000	131.870070	127.624942	132.310210	129.950886	130.198438	130.808252	128.405128	135.920839	129.939767	131.262401	133.091748	128.341049	132.218718	136.374988	134.416807	133.930746	134.286527	129.772028	128.319557	132.929231
557.000000	140.373193	138.016364	143.445944	140.534079	138.241958	139.891235	139.550606	146.296270	142.270862	142.065641	143.506667	143.587506	144.793753	147.691189	148.541725	143.002238	144.684382	140.783497	140.857156	147.682657
558.000000	151.829837	146.941725	157.175991	152.125874	148.259441	151.782051	149.400839	158.796737	156.562704	152.758042	155.002331	157.550373	156.575758	159.555478	160.590909	153.151748	154.414918	152.704196	152.744942	160.448858
559.000000	165.284382	157.377389	170.310490	166.396503	159.218182	167.110256	160.902797	173.207692	169.953846	163.859441	172.139394	169.847319	170.584382	174.412354	176.515152	168.524242	164.251515	167.005828	164.296037	174.119347
560.000000	179.812354	170.083450	185.798368	179.296270	174.131935	179.653380	177.412587	186.409557	184.393473	177.796970	184.805128	178.484149	181.028205	186.070396	189.663869	179.876457	177.238462	183.716783	178.616317	187.932401
561.000000	193.384149	184.764802	199.568065	197.236131	189.470163	197.051282	191.253380	196.489977	195.256177	193.855245	195.837529	188.716550	193.184615	199.620746	201.268765	193.792308	192.508625	201.344056	196.147319	202.651981
562.000000	211.747552	197.555944	210.993939	211.619814	205.071562	215.161305	209.773893	211.463869	209.368765	208.873893	208.181119	201.386480	206.954545	213.135664	212.605361	211.764336	209.086713	217.531469	213.447786	218.523543
563.000000	227.609324	213.233100	223.021911	223.768065	220.048485	230.804429	227.661538	228.650117	223.755012	225.525408	224.427739	216.441259	222.706294	229.896037	224.610256	226.903730	225.381585	235.035664	232.654779	232.342424
564.000000	242.957809	231.188112	238.256643	241.218415	237.206294	244.543124	245.348019	243.737296	239.680886	242.476224	243.454079	234.210956	241.523543	242.614452	239.926340	245.583683	242.678555	256.314452	250.365967	247.431235
565.000000	259.611422	250.821212	255.062471	261.929371	251.253846	258.686247	263.637762	257.894406	256.398834	264.397902	261.778089	251.376457	261.062704	260.296270	258.303497	263.486247	261.342191	276.856410	265.410956	261.405361
566.000000	278.117716	275.026340	271.999534	281.844988	269.281585	277.376923	283.952214	277.682517	277.019580	284.868298	281.212821	274.354545	281.113986	281.977855	276.334499	281.696970	279.807226	293.603497	284.141725	280.685781
567.000000	296.781818	300.068998	289.994172	304.181352	286.750117	297.295804	303.158741	294.812121	297.292541	306.563636	301.131002	303.098135	302.454779	300.855944	297.452448	301.511888	297.261305	312.466434	301.496970	295.870862
568.000000	315.746620	319.034033	314.265967	324.621678	306.783217	319.409324	323.274592	311.477156	318.696503	325.204429	320.945455	323.815618	320.111422	324.182984	320.372494	317.500466	314.787413	331.085082	319.679487	315.724709
569.000000	335.965268	339.260839	338.438928	342.380653	331.893007	340.583683	346.394872	331.168998	336.380186	343.864569	340.368998	341.196270	341.314918	346.937529	345.826107	336.060140	334.248951	350.473193	335.507226	336.932168
570.000000	356.604429	359.560839	365.946154	360.904895	361.021911	360.922145	368.403497	348.910723	358.321212	367.606294	353.518182	358.918881	356.485781	367.415851	366.385082	357.213986	356.317716	368.958508	355.750117	359.758275
571.000000	376.321911	376.862704	389.660373	383.677622	383.456410	387.368998	389.301399	372.260839	377.351515	388.561772	375.728671	375.400932	373.142424	389.674592	384.721911	377.095338	377.011888	385.641026	380.046387	386.396037
572.000000	397.011655	394.941958	411.849883	405.822844	406.496503	411.520513	412.907459	397.333100	398.135897	410.817249	402.215851	396.223077	393.378089	412.298834	405.753380	404.856643	400.067832	404.593939	403.026807	418.205128
573.000000	413.924476	418.688811	437.064802	430.397436	430.817016	433.887413	438.950583	422.668531	417.845921	428.007459	426.174359	416.799767	416.872727	428.160839	425.486014	429.488811	421.271795	426.560140	427.622378	442.739394
574.000000	433.495338	442.046620	462.138228	457.856410	454.374825	453.905594	464.325874	446.826573	442.855711	450.528671	449.878555	440.064569	442.120047	445.867832	450.322378	455.230070	448.855711	455.136131	451.527040	466.753846
575.000000	452.376690	468.789277	483.261072	487.176923	473.857110	476.395105	485.444755	468.280653	467.351748	479.220513	472.128904	468.401399	468.460140	468.960839	474.385315	480.199301	479.845221	483.109557	470.128671	485.399767
576.000000	477.522145	496.396503	502.719580	511.581352	497.832401	497.862471	506.923543	494.947086	495.259674	503.454312	500.673427	499.517249	488.752214	493.805828	498.127739	505.858042	510.444056	506.616317	495.736597	503.239161
577.000000	500.386014	517.946154	523.497902	533.602797	516.992075	524.626807	530.919580	513.782284	516.811655	530.508858	524.882751	529.628438	515.623776	516.950583	521.712354	535.266667	535.391841	529.185315	518.196037	520.103263
578.000000	521.550583	539.882517	544.448252	552.448252	540.957343	549.347086	554.742424	535.019347	538.169930	553.095571	548.882517	554.982984	543.656177	546.948951	548.245455	558.875291	558.168298	550.117249	546.624242	545.872261
579.000000	546.252448	564.414918	560.677855	565.054545	572.249417	571.979487	574.034266	560.216317	563.408858	576.699534	568.982051	578.660373	578.929837	572.824009	572.820280	587.479720	583.208392	571.163170	569.614685	573.439161
580.000000	571.733100	581.361305	585.399534	581.747086	603.059441	594.044755	594.255478	585.108392	594.255711	598.725175	591.540326	608.826807	608.040559	596.719347	599.826573	615.512121	609.351049	591.174825	597.825874	604.361538
581.000000	598.313986	597.712587	604.883217	599.198135	621.828904	615.600932	618.165501	615.689744	618.844522	620.449417	620.788345	635.668765	629.465268	620.693240	623.949883	635.052448	630.158974	611.973893	628.017949	635.377389
582.000000	624.248252	619.165967	626.712354	623.557110	643.505594	634.618415	637.983217	643.856643	641.889977	647.617716	642.720513	661.664802	655.594406	649.861072	650.045221	655.278555	651.355245	638.025408	652.543124	669.208159
583.000000	646.313753	645.642191	653.869930	648.967832	662.848951	656.547786	663.796737	667.773427	668.362238	669.506527	661.606760	676.792541	676.714219	671.897902	673.234033	673.027739	667.698135	666.066900	678.897669	690.846387
584.000000	670.763403	674.867133	678.799068	671.846154	678.529837	676.482051	685.174592	691.191608	693.861538	693.190676	679.534732	698.118648	698.628438	702.912121	698.828904	691.509557	688.959207	692.573193	707.717949	707.791841
585.000000	691.596037	705.819814	700.999767	699.001166	699.637762	702.735198	709.190443	713.913054	718.471562	719.207692	701.482284	717.497203	719.335897	726.304196	723.620047	711.941492	714.906993	719.104429	733.317949	723.923543
586.000000	714.790210	732.008392	726.365268	719.030070	715.600466	723.143823	732.147786	735.662005	740.672028	739.263170	730.968765	734.701865	734.088112	750.836364	743.493007	730.835664	741.260140	745.137995	754.984615	742.156643
587.000000	736.324476	756.220979	746.277622	740.411888	734.985082	748.777855	754.198601	753.020047	754.707692	757.192774	753.386713	755.421678	757.256876	773.797669	758.710956	756.718182	761.626573	771.923310	770.816317	762.312121
588.000000	753.381818	779.518881	763.255944	764.541259	763.630536	772.878788	778.442657	774.271096	774.086480	771.933800	776.557576	775.728438	779.239627	794.001399	781.120047	774.692308	783.910256	791.075058	792.106760	787.993473
589.000000	777.396270	801.162937	784.982051	782.383683	788.901399	797.456177	797.044289	798.917949	792.870163	792.129837	799.569697	794.838228	809.137296	810.403730	799.334965	800.606760	806.975991	805.760373	809.849883	807.723310
590.000000	803.940559	811.087413	809.665734	802.403730	811.945455	814.650350	823.537063	820.148951	807.894406	806.999767	820.865501	821.483450	830.223543	825.914918	827.785082	819.293939	835.599767	825.017949	832.834732	825.771096
591.000000	829.065967	824.595338	828.786480	827.206061	827.176457	835.321911	842.655478	844.317483	822.727273	830.735664	840.575991	844.348718	846.465501	845.002331	847.116550	841.261772	859.963170	840.805828	854.832867	842.014685
592.000000	849.136830	839.971795	848.935664	851.826107	839.735897	854.894172	859.581352	860.074592	840.070396	852.266667	857.042890	863.700932	865.798834	866.732168	858.662005	856.095105	870.893939	855.373660	873.373193	856.994172
593.000000	864.076224	853.115618	866.943357	875.365035	848.959207	875.633333	876.953147	870.180186	862.900000	865.212821	872.748951	870.729371	877.213986	881.859674	870.065501	871.985315	879.715618	868.753846	888.284382	865.747552
594.000000	880.867599	868.678089	879.015851	892.679487	864.183916	895.019347	889.916317	881.461538	878.906527	875.421445	887.486247	889.245921	890.069231	897.597902	880.288811	890.738462	891.857343	880.091608	901.941958	875.612587
595.000000	890.450350	885.071096	888.076457	910.190210	884.023310	918.224009	906.729371	895.849883	894.381352	894.125175	905.670163	902.552914	901.231702	906.555012	897.518182	909.824242	911.659674	890.920280	910.453613	891.651748
596.000000	907.503730	895.007925	901.905828	918.464103	897.699534	933.037762	911.755944	907.605828	914.215618	909.824942	928.292075	911.293706	912.782051	917.652448	906.199767	922.872494	924.679254	905.950350	918.801399	910.122145
597.000000	918.426107	909.771329	912.357576	930.925874	914.659207	950.396970	916.561072	920.630536	929.393240	920.055711	938.228671	924.057576	922.411888	932.011189	918.465501	933.909790	931.905361	928.731702	930.780420	922.021911
598.000000	921.893007	921.794172	925.203497	942.341259	930.544755	961.353380	929.556643	929.831935	942.931935	927.879021	946.148019	941.257809	932.072494	940.721445	929.057809	935.532168	938.401865	937.296503	940.876923	942.624942
599.000000	933.059674	935.427739	941.496503	947.499767	942.241492	971.670629	936.712821	941.171096	951.392308	941.495804	951.096737	957.001632	942.322378	954.893473	935.199301	943.217949	947.103497	944.896270	949.611655	955.343590
600.000000	943.208159	941.071795	954.167832	950.877156	952.641725	973.600466	948.728671	953.633566	957.530536	952.499301	954.887413	973.134499	947.976923	970.466434	955.246620	945.231935	957.267133	956.132867	962.372960	965.196737
601.000000	946.635431	950.655012	965.936364	964.140793	958.510490	978.293939	955.595338	961.170862	970.684615	966.244522	957.799068	986.217483	960.725874	980.404196	963.355012	956.487646	965.918648	965.059441	974.107925	973.395571
602.000000	945.368998	957.859441	976.686014	971.324709	961.318648	977.043124	967.864802	967.426807	978.316084	974.989510	963.246853	999.188112	970.162238	983.666667	967.424709	964.874359	967.558275	975.613520	984.013753	976.297902
603.000000	945.362937	961.834732	981.394639	978.567599	969.679720	977.032634	977.295804	973.206294	981.374825	980.763170	966.279953	1002.239161	975.050816	981.896270	977.466667	970.183450	973.123077	989.277855	983.979720	984.741958
604.000000	954.303963	966.863403	983.653380	981.559441	980.137995	979.861072	983.462704	979.447319	984.536131	988.912121	965.209557	1000.301865	974.420746	980.715618	985.450350	981.679953	982.032634	995.768531	980.888345	990.199534
605.000000	959.813520	967.626573	982.735897	987.257343	988.024242	978.778788	989.044988	984.993706	985.397436	996.696970	970.947319	993.544755	982.196037	978.210723	996.308392	989.311189	984.389044	1000.178322	982.037762	995.351282
606.000000	969.171329	966.129371	983.313520	983.817716	991.082984	980.865035	985.216783	986.822378	984.260140	998.790909	980.441026	978.874126	991.606061	978.683916	1002.760373	986.518881	983.432867	1002.045455	991.851515	995.475524
607.000000	968.982751	964.657576	980.525874	979.812121	988.100233	980.973893	978.113753	989.864569	978.288811	993.890443	982.533333	970.679487	987.117483	977.883217	1003.986014	983.819114	983.802098	1004.752214	997.385315	986.985781
608.000000	970.900000	965.263869	970.767832	976.370862	981.127040	983.333100	977.270163	982.352448	975.321445	982.053147	982.947786	975.804662	983.142191	977.287179	992.052448	983.855245	974.597436	995.460140	988.952681	986.277156
609.000000	972.177389	964.320746	966.339161	961.713287	973.558275	982.347786	968.418182	974.116084	969.772960	972.181585	977.940559	976.893240	975.394639	979.054312	985.259674	984.642890	975.346620	994.130303	975.098135	978.801632
610.000000	970.911888	958.152448	959.016783	946.516317	963.589044	972.922844	959.082751	961.539394	963.485315	967.394639	977.411655	977.462937	968.935897	973.669697	980.826107	983.731469	970.778555	988.239860	971.409790	970.212821
611.000000	967.451981	951.549883	950.272494	944.400233	947.184615	960.266667	953.512587	950.451049	964.212821	967.231935	974.357576	978.063170	965.075058	963.199534	968.588345	980.922378	968.770163	979.580653	966.986480	957.830070
612.000000	958.531002	944.481818	947.371795	941.277156	936.161305	954.026573	949.232634	948.365268	960.694639	969.606294	970.036364	976.878089	963.823543	956.796503	959.008625	979.195105	966.702098	970.457343	963.083683	954.217483
613.000000	949.158974	935.668298	946.465501	936.683217	928.985315	948.665035	945.140559	942.847786	954.731702	965.259207	961.289044	977.724709	961.452448	948.729138	957.008858	964.599068	962.815385	970.910490	957.889744	957.779487
614.000000	942.497436	929.008858	943.335431	933.220047	923.184615	942.843590	934.251515	940.444988	954.062471	960.594872	948.512121	969.407925	948.556876	935.885781	945.960839	954.135664	957.641492	962.002797	951.414452	954.260140
615.000000	935.655012	922.595338	938.176457	930.313753	920.429604	932.712587	932.367599	932.016317	945.494872	951.051981	942.049883	957.295804	946.824009	923.336131	941.486247	941.386014	947.953846	950.446620	943.806294	950.396737
616.000000	924.886247	915.685548	927.502564	917.446620	917.068765	921.053613	922.167133	929.244056	931.811422	936.014219	933.515618	940.014452	938.095804	913.788112	935.827040	924.641259	941.841259	931.230303	943.326340	942.440326
617.000000	908.683450	905.572494	913.759441	909.162238	915.486713	907.522378	913.200000	929.598834	924.691375	920.235198	920.658974	929.015385	916.933800	902.120513	920.794172	914.942424	932.244056	913.291142	940.320513	928.697902
618.000000	896.182517	899.495105	897.284149	900.447319	907.627972	899.720979	908.518881	914.600000	911.807226	906.117483	903.690676	920.922145	900.672261	895.147552	905.177156	907.737296	912.638695	905.431469	921.319580	915.748718
619.000000	878.897902	894.036131	887.448485	882.332634	900.693939	888.508625	896.931002	898.897902	891.260606	891.617483	889.640793	907.094406	885.445688	885.869697	889.306527	896.464336	908.903030	905.603263	907.668298	901.758508
620.000000	868.599534	878.596270	870.637063	873.753846	888.387646	874.005128	886.726807	877.809790	873.538928	882.987179	877.235198	892.143124	871.314918	874.263170	870.393706	879.840326	897.862471	895.157576	897.734965	885.740093
621.000000	859.068998	863.540793	855.073427	867.235198	872.137529	859.447086	876.592075	869.364569	865.027273	880.204662	868.875991	873.458508	854.618648	864.334033	857.236364	868.413520	880.898601	884.696270	879.113986	868.118881
622.000000	840.044988	854.471795	843.684149	861.783450	862.584149	849.861305	867.293473	859.054545	855.480886	868.704196	854.488811	856.936597	842.582984	859.561305	846.880186	859.583683	871.771096	872.793007	862.288578	860.287413
623.000000	823.105594	838.161538	831.208625	849.486946	850.513054	837.960839	850.407226	845.976690	842.301166	853.458508	845.457576	846.133800	832.166900	845.601166	837.658508	843.004662	859.167133	868.170629	851.137995	851.242424
624.000000	811.297203	827.102564	815.499301	839.488578	836.510490	822.162704	830.566900	832.886713	826.874825	839.291142	835.428438	826.204429	817.684848	830.033333	820.174126	830.733100	847.623077	855.630070	832.662937	841.164103
625.000000	806.885548	815.430769	799.890676	826.222145	823.695571	812.506760	819.611888	814.560140	812.694639	823.457809	825.789277	804.876457	810.275758	813.677156	811.212354	823.389044	836.306294	837.344522	814.381352	828.688112
626.000000	796.166434	801.093706	784.772727	805.310956	808.903030	800.173193	803.608625	802.974825	798.826807	802.484382	814.036364	794.075758	797.311888	796.959674	800.805828	813.189744	815.632634	819.487879	805.090210	813.545921
627.000000	779.469231	789.114452	772.464103	793.593007	800.344056	784.983217	792.016084	790.710723	790.676690	784.797669	795.508392	787.395804	782.698368	784.413520	791.204196	803.971562	786.914918	799.674359	794.983683	796.593007
628.000000	765.948019	769.617949	762.141725	773.474359	785.444056	774.039394	781.344755	770.238695	772.412821	770.252214	779.868298	778.263170	769.885082	776.582984	779.947086	791.031235	762.679021	785.122611	780.262005	782.395338
629.000000	752.225408	755.524942	754.482284	758.412121	767.215618	764.373660	764.035897	755.747786	751.261072	756.689277	767.729837	766.073660	758.283916	760.641958	768.106527	770.979953	747.101399	768.987879	772.739394	764.963869
630.000000	743.469930	739.562005	741.734266	746.508159	746.439161	750.970862	747.062937	739.480886	732.507226	745.381818	751.891142	755.670163	739.956177	746.947086	754.396737	749.256643	728.236131	751.169231	757.881352	750.391608
631.000000	726.815851	725.833566	728.279021	734.277156	729.859207	736.482517	727.641259	730.604429	719.431469	731.914918	738.924476	738.727273	719.381585	731.143590	750.652681	736.334266	708.920047	741.556177	740.314918	736.581585
632.000000	704.761772	715.729138	714.845455	724.303963	717.493706	721.538228	712.204895	718.813753	708.459907	714.614452	722.120979	719.578555	705.485315	716.512587	735.350583	723.854312	701.390443	720.622844	727.534266	725.065734
633.000000	687.729138	699.870862	699.708858	707.667599	701.647086	705.743823	690.205361	706.669464	697.476457	697.048718	708.857809	701.678322	699.351515	703.471562	718.460373	707.907692	691.972028	705.200233	718.554312	709.216783
634.000000	676.958508	687.851282	686.097669	697.197902	682.105828	682.516550	675.004895	693.253380	686.013054	682.982051	692.041492	680.100932	690.923776	688.056177	699.411422	692.130070	689.475524	690.516783	701.787646	697.283683
635.000000	663.676690	674.075758	672.763403	683.898135	670.242191	670.147319	666.295804	677.343823	680.019814	663.239394	679.914219	667.227739	685.111189	671.300699	684.125175	680.290443	683.729837	674.624942	686.304662	683.718648
636.000000	646.913520	658.069464	661.458741	665.957343	659.307925	653.717483	655.799767	665.862238	668.932634	649.126807	667.671795	658.583217	677.946387	659.889977	670.843823	666.336131	673.535198	658.858275	671.427506	667.565501
637.000000	633.648485	644.609790	648.302098	655.904429	656.079254	637.737529	646.363403	654.473193	659.699534	638.912121	651.324242	645.858042	666.658042	654.111655	659.697203	650.940793	658.520513	644.835431	655.891608	652.272494
638.000000	625.524242	626.371562	639.732867	637.518415	645.007925	624.313520	640.794406	641.551282	645.690210	631.453846	641.303963	636.980420	648.795338	650.050117	650.280653	640.574592	648.510023	626.097669	641.550117	641.923310
639.000000	615.158974	615.778089	626.140559	628.227506	629.627972	613.455944	628.821445	634.436597	626.600233	627.209790	631.372028	623.620513	631.191142	635.279487	639.413054	622.247552	634.459207	611.754312	625.368765	631.250350
640.000000	607.123310	603.771329	607.996970	618.237063	614.749184	605.438228	615.450117	621.672960	610.452681	622.505361	615.413287	614.676923	611.179953	625.134499	622.191142	603.121445	615.105594	602.368531	608.432168	616.700233
641.000000	595.868065	590.674359	591.932168	601.987646	602.122844	600.611655	600.571795	608.978322	598.048252	613.774592	604.196270	598.737995	596.838228	608.255245	607.956177	588.841259	595.038695	596.160373	587.864802	601.168765
642.000000	582.958974	580.930769	581.995105	584.945221	589.092541	593.211655	590.277389	593.920746	587.815385	607.733800	588.289044	583.747086	587.853147	592.626573	588.123310	577.437063	580.385781	581.759207	573.897902	589.543823
643.000000	567.373427	570.623543	573.153613	569.161305	570.225874	583.681818	577.669231	579.045688	578.580886	591.526340	570.943357	573.854312	579.150350	582.508625	569.462005	565.485315	567.831935	574.277855	563.886713	571.962005
644.000000	557.887879	559.016550	564.592308	559.614918	551.874825	575.032867	565.344755	564.931002	568.436131	579.846853	556.626807	557.260606	570.244522	564.980653	551.351748	553.648718	558.425874	565.461772	554.985781	558.094406
645.000000	542.113986	546.727506	553.674359	550.084382	540.942191	562.992308	557.058042	553.006760	555.779254	557.732401	545.688112	547.001865	560.040326	550.631235	537.314685	547.260140	547.283683	556.630769	546.599068	544.641958
646.000000	526.128671	533.112354	540.792308	539.481585	533.754779	544.031235	541.486480	540.990210	540.720979	539.683683	534.614219	534.261538	546.748951	533.465035	526.388112	538.208392	538.973660	546.375291	539.333100	534.217016
647.000000	516.024942	525.328671	527.810723	528.044988	524.160839	530.275524	527.959441	527.840326	529.145221	522.329604	521.412121	525.451748	532.532867	523.734965	517.403730	530.388345	527.448252	534.171096	531.728904	527.401865
648.000000	506.090676	516.179720	513.335897	516.742890	512.761072	512.964802	518.799534	515.871795	514.591375	508.985082	513.036597	520.279487	512.383916	511.324476	510.350117	524.217483	515.798834	515.147086	524.672028	519.971795
649.000000	491.509324	502.090210	496.702797	508.859907	500.513753	498.276457	504.912587	507.309557	499.955478	494.700233	500.264336	510.999534	497.620047	500.337762	498.303730	510.747319	496.899068	502.528438	514.575058	509.827273
650.000000	484.893007	486.123776	482.826107	497.246620	486.717016	485.148252	493.186247	495.333333	488.113986	485.373427	487.281585	502.941958	487.201632	491.860140	487.706061	498.409557	476.525641	491.249184	502.579720	494.686480
651.000000	473.804662	479.059907	474.661072	481.235897	475.652914	470.197203	485.752681	484.598368	477.455944	477.932168	477.586480	491.681352	477.358508	483.179021	479.321911	488.585082	462.647319	480.156177	485.171329	483.739161
652.000000	466.748718	469.720979	469.715385	470.489277	465.849883	457.799534	474.844988	470.908392	463.769930	472.544988	469.086713	482.382051	468.994406	473.370396	469.690210	473.779953	456.054312	466.979254	468.706527	473.934499
653.000000	457.247086	458.037063	463.518648	460.124476	455.040326	448.630070	462.171096	459.280653	455.720047	463.858042	460.662937	468.891608	461.320979	466.530303	455.647319	461.124709	451.668998	456.993473	459.261305	461.648951
654.000000	452.147086	445.811422	453.437529	451.760606	440.635664	446.180186	454.330303	446.369231	447.759207	458.987179	452.213986	450.427040	455.360140	455.623077	443.162471	451.189510	445.014219	449.254545	449.712821	449.973893
655.000000	441.442890	436.006760	442.365268	442.775058	429.947086	437.641958	448.170862	435.990909	438.465501	449.739394	441.748019	437.892075	444.174126	443.057809	435.159441	441.477156	438.400233	443.621911	440.120280	442.285315
656.000000	430.351981	425.861772	430.178555	434.036597	422.274592	428.937063	437.687179	420.679953	429.192774	437.143590	432.520047	428.078322	432.654312	429.031235	425.023543	429.947552	431.293473	433.426573	429.306527	433.933566
657.000000	422.210723	418.965734	420.572028	420.712354	411.105128	423.561772	433.194172	406.941259	422.262005	428.162238	420.389277	419.711888	424.336597	421.370163	414.300466	423.579487	423.093007	422.532634	423.081585	426.260839
658.000000	409.172028	409.498368	408.678322	407.820280	405.490676	414.584382	425.284848	398.226807	415.736597	419.240793	409.684615	412.010723	411.909091	411.365967	401.371562	413.722844	417.489744	413.180186	417.673660	415.213287
659.000000	397.859674	395.427040	401.022378	391.290676	399.770163	403.038695	415.174126	391.353846	406.285082	406.504429	397.832168	404.048718	404.173893	406.316783	386.711655	405.603030	404.923310	405.220746	410.515152	402.500000
660.000000	388.924942	383.203730	391.219347	378.245455	390.369464	393.841492	405.074126	383.954312	397.159907	395.429837	387.835431	394.549883	396.596970	398.793007	379.977622	397.427739	392.652448	395.940793	403.733800	390.784149
661.000000	380.053613	376.095105	383.133100	369.912354	380.961072	383.815851	393.241725	378.738928	386.668765	383.021212	378.671795	386.296737	385.475291	389.521678	372.038928	387.710723	383.690210	382.719114	392.551748	381.198834
662.000000	373.433100	366.803730	372.443823	362.623310	375.278322	373.545688	376.856177	369.252448	373.733333	373.085548	371.731002	378.425408	372.282517	379.076224	361.976690	375.026107	376.396737	367.529604	376.615618	369.109324
663.000000	362.936830	357.576690	362.182284	353.868298	366.134499	363.369697	364.054545	362.760373	364.330303	362.388578	360.170862	367.521212	360.524476	370.098368	354.108159	362.306061	365.707226	355.928438	366.348019	359.069231
664.000000	353.341958	348.948951	351.307459	345.034732	354.021911	355.271562	353.022844	354.582984	353.855012	354.554079	350.334033	358.583683	350.233566	356.996270	349.985781	349.744988	352.625641	347.989977	352.496503	349.976690
665.000000	342.702564	342.023310	340.189744	340.590443	344.075758	346.057343	339.974126	347.385781	339.828671	346.194639	340.358741	350.322844	337.891841	348.283683	345.828904	335.058042	341.017249	337.787179	338.377622	341.848951
666.000000	329.258508	332.347552	329.196270	336.271562	335.997669	339.070163	327.063636	336.485781	327.590909	336.511189	329.168765	340.813287	327.537063	337.598601	341.006527	327.051049	331.319580	331.101399	325.640793	328.224476
667.000000	317.471795	322.811655	320.958275	331.548485	328.055012	330.958042	322.220513	327.594406	320.738695	329.795804	320.383450	331.904662	317.521911	327.108392	336.443124	322.291375	323.020047	324.648252	316.943357	319.236830
668.000000	308.199767	312.724709	312.897436	322.370163	319.944988	321.209091	310.113287	320.735198	316.310956	320.171329	312.473893	323.289977	308.796037	319.519814	328.130070	316.881585	317.887413	318.478089	309.406294	309.714219
669.000000	302.460140	302.075991	304.462238	308.504662	312.513287	311.326107	301.810023	312.585548	307.166434	312.589977	306.432168	313.595571	303.177855	311.835664	319.907692	313.333566	306.665035	308.866667	300.600000	300.696970
670.000000	298.235431	294.338462	294.304895	298.768065	301.996737	305.068765	291.488578	301.817949	302.149184	305.730303	301.062005	300.897902	298.805828	300.759907	313.169930	309.922611	299.643357	301.782284	297.049650	292.279953
671.000000	294.717016	285.920047	283.758042	290.423776	290.156410	293.875058	283.534033	295.234499	297.406061	294.013520	294.158275	293.715385	292.151515	292.716317	305.239161	302.257343	294.556177	289.365035	289.511888	290.031702
672.000000	285.854312	278.224942	276.824709	283.735664	281.747319	282.320513	277.169464	284.602797	288.511655	287.024709	287.239860	286.489510	284.695804	287.703263	297.761072	295.258275	287.588811	279.484848	283.042191	282.590676
673.000000	277.789510	273.292075	271.883916	276.008625	272.245455	275.018648	272.526573	277.377156	279.960140	278.270629	278.078788	280.067832	280.667133	280.897436	288.549417	282.500000	281.986946	270.563170	276.232867	277.909557
674.000000	270.128438	267.821445	265.044522	266.501166	263.603030	266.132867	267.787413	270.343823	271.203497	269.235897	270.403963	272.509324	274.118648	271.449184	279.066434	273.096270	275.518881	264.333333	268.337296	275.995571
675.000000	261.937296	261.427972	257.841958	262.557110	254.323543	254.614219	262.087879	263.025408	263.301399	259.699767	260.447086	265.192308	268.245688	266.234965	267.583916	263.114219	267.916783	258.455944	260.376457	269.803730
676.000000	251.037063	250.278788	249.375524	257.956410	245.920513	246.152681	256.700000	254.935897	257.366667	250.475058	252.893240	257.195338	260.609790	258.065734	262.506061	253.378322	262.138928	256.498834	251.355012	260.441725
677.000000	244.747552	239.706760	239.100466	254.256177	239.893240	237.887646	253.435198	248.715385	252.279953	243.624242	250.481352	250.873893	252.385315	249.764802	255.471329	243.183450	250.788811	249.944289	242.520047	251.261072
678.000000	240.859907	230.089744	231.960839	244.271795	231.706993	231.556876	245.674126	241.497902	243.749883	237.201632	245.140793	241.966434	242.843124	243.276224	247.832634	236.545921	243.013287	244.084615	234.513287	244.014452
679.000000	234.248718	222.023776	226.022145	233.342890	225.563403	225.527506	240.465734	233.327506	235.543124	233.006061	238.503963	231.986480	235.142890	236.550816	239.725641	227.404429	234.758741	235.851049	226.446853	237.374825
680.000000	228.291608	215.370396	218.650117	224.232168	220.482284	222.579487	233.890443	224.462937	229.063636	226.603730	232.006294	225.317716	227.980420	229.643357	228.532634	221.212821	227.385315	233.554079	222.423310	228.757343
681.000000	220.592541	210.506993	212.586247	216.011422	216.784149	214.542191	224.522378	216.245688	220.856876	216.359441	222.095571	220.505828	218.826340	222.738228	221.190909	212.568298	218.399068	224.623543	217.775058	221.427506
682.000000	211.194872	207.245688	208.872727	208.841958	212.330070	210.365501	216.257110	206.874126	210.452214	212.449650	216.294172	214.481585	211.486713	215.124709	212.191841	205.201166	209.879953	214.737296	213.382284	211.313520
683.000000	202.821212	205.762937	202.492541	199.749417	208.097203	205.202797	208.074825	201.697436	203.850583	205.583683	207.732634	206.334732	203.459207	205.692075	201.223776	195.732168	204.606760	203.052914	208.957576	204.498601
684.000000	194.235897	200.217249	194.185548	192.616317	201.701632	200.975524	203.249184	196.998135	197.691142	197.424242	200.496503	198.161072	194.831469	195.581352	190.949650	192.799767	197.264569	195.580420	202.708625	198.068298
685.000000	186.633100	193.581352	188.023310	188.432168	193.729371	192.244988	196.079021	192.023543	196.471329	193.045221	192.955478	193.439627	189.305594	184.424242	186.179487	188.975758	193.807459	186.449883	196.358275	189.547086
686.000000	179.024476	184.408858	180.739627	186.074592	184.091841	183.820280	190.366434	185.912587	193.101865	186.629604	189.497436	187.382517	182.678788	176.058275	184.964802	183.134732	193.463869	178.968065	188.517483	180.941259
687.000000	175.625408	178.492308	174.289277	183.668998	177.704196	178.201166	183.415152	180.456643	188.548019	182.616550	186.199534	181.540326	178.264336	169.269464	181.626107	180.948019	187.683916	173.158974	180.422611	171.143590
688.000000	169.661072	170.943357	171.449650	177.301399	169.526573	174.302098	175.688112	172.679720	183.694406	179.612121	179.951282	175.220280	174.475524	163.702797	176.227273	178.574359	185.578788	171.113287	172.372261	167.832168
689.000000	163.787879	162.977855	168.481352	174.497902	161.817483	169.203263	168.657343	164.037529	178.172727	175.734499	173.604895	172.513054	171.288345	160.123543	171.094406	172.129604	179.166900	168.077855	166.097902	166.980653
690.000000	158.790210	157.653613	163.420746	171.659207	155.903497	165.706294	164.281352	155.045921	172.312121	168.348951	165.676690	170.790210	168.601399	155.830536	162.654079	166.182517	168.629138	168.168065	161.426573	163.823310
691.000000	153.637995	154.923776	159.221911	167.046387	152.495338	158.104429	156.270396	148.721212	164.568998	162.937529	158.385548	163.877156	166.149417	153.821911	158.447319	160.518182	159.342657	161.917483	157.613054	159.620979
692.000000	150.200932	151.890676	152.126807	159.417716	148.390443	153.473660	150.079720	148.157110	159.315385	157.957343	153.433100	158.194639	161.991375	152.175291	152.519114	153.119347	148.937063	154.367832	152.645221	156.874825
693.000000	145.244522	146.645688	143.238462	151.151748	145.784382	147.838695	144.835897	147.234499	155.154312	151.437762	147.933100	150.931235	154.296270	148.286946	145.961072	146.290443	143.201865	145.128671	151.089277	155.209790
694.000000	139.907692	143.008159	133.870163	144.660606	142.154079	144.006527	144.124709	143.482284	150.315851	145.182517	142.426573	143.882751	147.220047	146.727273	142.127273	144.020979	138.717249	140.570629	146.076457	151.925408
695.000000	136.523077	138.283450	125.340559	136.393240	138.076690	140.264103	140.422611	139.973193	148.061538	138.256177	137.338462	137.253380	143.189510	141.111189	141.703963	139.394639	137.425641	134.803263	141.591608	148.344522
696.000000	131.820979	133.635198	121.872727	129.931702	135.079021	133.258275	136.396737	135.455478	141.947552	128.618648	132.418881	131.106573	138.725874	138.722145	140.153613	136.156177	137.344289	129.305361	139.990023	142.875524
697.000000	128.733566	130.507226	119.172494	124.431235	132.400000	128.667599	128.924942	130.730536	136.869231	123.180653	127.958508	123.992354	132.401166	136.532401	135.625641	134.163170	132.011189	127.027040	132.592005	134.796270
698.000000	122.852914	125.303497	117.707925	117.935431	128.327366	125.208625	126.125874	125.712587	133.660140	119.458275	123.298555	116.113100	126.590909	129.370047	130.089744	128.973193	129.938928	125.077622	126.137576	132.278788
699.000000	117.696970	119.462005	118.390256	116.317483	121.287855	120.157809	122.015385	121.247319	127.493706	114.716783	119.105198	113.615664	121.642890	122.462937	126.337016	125.884242	125.004429	120.882284	120.384312	130.301166
700.000000	114.074033	114.804429	116.426200	116.633520	116.302191	115.771329	120.763823	117.111422	121.819207	111.533800	114.286200	111.085408	118.425641	116.347949	119.712541	120.158928	119.126900	118.021865	115.085594	125.852075
701.000000	110.540886	108.811096	112.999627	114.839814	109.826783	111.761678	116.952751	116.011002	117.078881	110.050909	111.211725	108.681445	115.499907	112.112051	115.346946	116.217879	114.653147	112.646247	110.851026	120.223054
702.000000	108.568462	105.316457	110.312960	111.851235	103.284895	110.245618	113.266247	114.396900	112.192261	107.397179	109.051189	107.721585	110.413473	106.684709	109.113310	109.496597	108.614009	108.208811	107.059534	115.946550
703.000000	103.240979	100.658415	104.490303	107.176177	98.832261	105.906294	111.232984	111.296783	106.267273	106.647786	105.317552	106.538368	104.666807	101.566434	105.359161	103.115991	104.859744	102.885851	105.286550	111.444242
704.000000	101.450769	96.730606	99.170466	104.971538	95.708788	102.902681	109.831678	106.583869	102.308671	103.501002	101.884895	103.861375	99.437249	98.757413	103.721981	99.647179	99.754289	102.199627	102.573077	106.797529
705.000000	100.291818	93.286853	93.979464	99.775501	93.227249	101.103869	104.020536	105.455664	96.604079	100.635967	98.964755	101.718275	96.752308	95.298462	100.951772	94.035315	95.395315	100.277319	100.303776	102.560559
706.000000	95.764569	91.708671	92.959977	93.944802	93.824336	97.139254	99.156503	102.926457	91.287552	96.701375	94.676270	98.539557	95.175734	92.120210	96.449953	91.487972	91.022168	96.590326	98.297226	98.366131
707.000000	94.292214	88.808858	88.792308	89.838438	92.213263	94.963869	93.063520	99.008252	88.086270	92.732914	92.896084	92.012331	91.287086	89.924755	92.298159	88.977273	86.020513	94.737716	92.775338	92.579627
708.000000	90.505618	88.195711	85.811772	87.325921	89.319720	93.676620	91.495944	96.392844	86.622494	90.413450	91.354289	88.159231	88.696061	86.699744	88.702681	86.754779	84.132075	92.338252	90.062494	90.048112
709.000000	86.131305	85.831352	85.243007	86.214709	86.294359	89.756853	87.966177	92.892354	85.662797	88.608345	88.605828	87.699790	86.967902	85.789580	87.053869	86.179767	81.720676	89.863590	87.251702	86.685828
710.000000	82.841748	82.756154	83.006107	84.453054	85.398042	87.637902	84.378648	88.770117	84.274149	88.870023	86.426690	85.963147	85.690536	84.255175	85.156177	83.693030	80.555758	88.166317	86.201329	83.643800
711.000000	79.036154	81.267739	79.150210	83.456527	80.730490	86.224149	80.737249	85.489394	82.921305	85.884848	84.097669	84.249837	84.141026	81.346900	83.667063	81.633543	78.784755	84.157809	83.413916	81.355035
712.000000	76.843520	81.877249	76.846037	81.794825	77.837599	83.502517	79.744009	80.763030	81.432797	82.092564	82.737599	79.880816	81.629044	79.086131	81.235408	79.357972	77.412587	80.502471	80.128998	79.860769
713.000000	73.417855	79.515291	72.871049	79.520559	75.998625	78.453287	79.130676	77.784522	78.089184	78.989580	79.626154	79.132844	79.512541	77.869883	79.228741	77.986177	77.090606	76.240606	79.089814	76.891305
714.000000	73.678648	76.345221	69.977366	77.156573	73.828718	72.794196	79.842284	74.222681	75.210839	75.009907	76.339161	75.039744	76.772867	74.500793	77.624289	76.124336	75.673333	73.567296	78.585431	74.184779
715.000000	72.151725	75.620979	69.068648	72.744033	70.095408	68.857622	78.163217	72.638322	69.062121	72.052331	70.174009	72.565967	75.067203	71.492821	74.440047	73.364172	75.020023	69.359744	75.252261	72.733869
716.000000	69.599091	73.072424	67.755152	68.326993	67.104056	67.305688	77.029907	70.938252	67.638601	66.856783	64.835897	69.273800	73.700326	68.059907	71.245874	70.096760	73.166597	65.237063	71.587552	70.070956
717.000000	68.558555	68.649371	65.241911	65.441469	63.406783	67.447692	75.167296	68.874499	65.136923	62.847319	63.378159	66.564289	70.935221	66.443263	69.170140	67.193636	70.772308	63.944569	70.079790	67.672308
718.000000	66.363217	67.252984	64.125082	63.646014	61.439627	66.134755	71.503007	65.737366	64.219534	62.869977	62.047646	66.143497	68.610886	64.365828	66.476807	65.301632	69.534289	63.804965	68.702517	63.802494
719.000000	64.204848	63.882145	63.108415	61.492844	61.396690	64.376853	66.781632	63.217366	62.737949	61.508019	60.707716	65.580629	65.928462	63.083403	64.299557	62.086014	68.653776	63.131795	67.203939	60.795967
720.000000	61.915781	60.455967	62.498555	58.752681	60.012844	62.822448	60.815431	61.966014	60.192494	60.881911	58.741469	62.669068	63.523753	60.253916	62.788648	60.679277	65.094685	61.635758	65.023613	58.745361
721.000000	61.220233	58.192704	60.537016	57.837809	56.320420	60.393287	57.295688	60.464196	58.023217	59.317436	56.651026	60.873636	61.638205	56.581329	59.805478	58.127319	60.425291	57.853730	61.274289	57.666643
722.000000	59.129138	56.937995	58.286830	55.510676	55.288578	58.586970	55.637086	58.048718	56.174569	57.638252	55.939953	56.878998	59.257552	54.118345	57.037389	57.549907	57.169138	55.666713	57.158881	57.977902
723.000000	55.357622	53.994242	54.488159	55.181702	54.948438	56.259184	53.486573	55.848042	52.470583	55.808718	55.421026	55.339534	58.289068	51.824033	52.889231	56.622727	55.530117	52.613077	55.489021	56.072494
724.000000	52.249557	52.561608	53.036830	52.168904	52.846946	52.035874	52.541329	53.200932	49.754662	54.310490	53.637389	50.990629	56.361772	49.299580	51.997413	54.269441	52.424499	53.070373	54.792611	54.490233
725.000000	49.820280	51.975268	52.524126	49.601422	48.999604	50.171632	53.152075	51.648298	45.993030	52.525338	50.711888	49.434988	56.431748	47.783963	50.465758	51.486713	50.358275	50.912704	52.003403	53.442448
726.000000	47.387179	50.300769	49.767156	48.630932	45.529161	48.828252	53.303007	50.255221	47.805944	49.002704	47.874545	47.611795	53.756923	46.334569	47.201585	47.053683	49.066643	49.765594	51.182657	51.082121
727.000000	44.988228	49.474476	48.195851	47.809510	44.381166	48.044592	52.471818	47.762657	47.319814	47.216014	47.942517	46.889977	51.425291	44.809091	46.346294	43.932960	47.959138	49.512448	50.127110	48.775758
728.000000	44.024312	49.162914	45.198345	46.507832	45.445012	45.873753	49.997389	44.265501	46.526294	46.833846	45.585175	46.714779	47.371911	43.512168	44.114988	42.481935	49.633636	48.620466	49.381492	46.944499
729.000000	42.620000	47.478811	42.264266	45.223357	45.776760	43.824545	47.210583	44.291795	45.665361	43.578065	44.001795	45.669417	43.495198	42.555152	42.409674	40.982727	49.088228	46.850746	47.019464	45.163730
730.000000	42.181911	46.135152	40.147226	43.692704	44.125804	41.156131	44.825221	43.784942	45.013450	41.251259	42.174289	43.570909	40.775478	41.486294	42.714266	39.712051	46.106480	43.819464	43.892844	42.260536
731.000000	42.482214	44.909324	37.887063	42.443124	41.993543	38.903193	41.896876	41.329231	41.594825	38.809790	41.294406	42.776037	38.593939	39.220047	42.891329	37.581562	44.520699	39.663054	41.272937	40.042751
732.000000	40.208671	42.800420	35.934872	41.826643	41.282984	38.081515	39.384825	40.219161	39.674079	36.551235	40.862634	41.480326	36.770186	38.157506	42.995618	37.462401	41.385291	37.108765	38.399114	40.633939
733.000000	37.697809	39.992378	34.244965	42.188811	40.575268	38.320909	36.530676	38.570047	37.623916	34.655851	39.595711	40.182984	36.127343	36.679371	42.066993	37.331702	40.304196	35.408112	37.270793	39.127040
734.000000	34.968182	37.812517	33.864802	39.552587	37.136573	37.469487	34.787739	36.398112	34.811329	33.016084	37.005268	39.661655	36.070303	36.533753	41.660536	37.222937	37.691212	36.185501	35.794639	37.975548
735.000000	34.415711	36.992308	32.400047	36.365688	34.644615	36.245501	34.020886	35.442005	32.774079	32.783240	36.077179	39.241702	35.508345	34.766294	39.261702	34.622284	36.408811	34.957436	33.877692	37.088881
736.000000	33.151725	35.509580	32.717413	34.579277	32.627273	34.612378	33.623753	34.291096	33.363473	31.999231	34.202751	38.118275	34.251888	34.025361	35.675035	33.479907	34.486970	32.795548	32.860513	35.023939
737.000000	31.045431	33.946900	32.981608	33.717995	31.166247	32.731235	32.696900	33.002448	32.336457	31.661166	33.196946	36.929324	33.696014	33.156014	33.312774	31.916667	32.675781	31.457296	30.625268	32.823776
738.000000	29.907762	32.400886	31.266573	31.505641	30.032401	31.161422	32.215874	31.349464	31.328065	32.446434	31.722424	35.572354	32.737529	32.500629	29.221888	31.771632	31.819114	30.828019	29.020420	32.913869
739.000000	27.847786	31.139650	30.104592	29.617809	28.461469	30.316364	32.129883	30.354149	31.409767	30.372587	31.714965	32.755664	32.252704	29.743357	25.959697	31.358345	30.065828	30.638531	26.768298	31.386224
740.000000	27.023357	29.749301	28.811329	28.022587	26.452774	28.774172	31.116713	29.048811	30.199324	29.660490	30.922005	30.186131	32.469417	28.072657	25.544172	30.731189	29.325455	30.419627	25.335221	28.566410
741.000000	26.379837	29.178741	27.186317	26.964312	25.130536	27.664172	29.579627	27.172727	28.019347	29.387879	30.296410	28.951935	31.407203	25.871515	26.397879	29.984312	29.632751	28.958298	24.542401	26.903730
742.000000	24.759744	28.570093	25.719953	26.179068	23.583776	26.617949	29.188904	27.501515	26.957459	27.893333	29.871608	27.569044	30.938228	23.831678	28.168205	28.923170	28.463776	28.410723	25.014685	26.678089
743.000000	24.031888	28.268159	24.527902	25.565408	23.478788	26.768159	28.375455	26.428485	25.401235	25.212284	26.828159	25.993193	29.369324	21.725874	29.847016	27.214172	28.804359	27.554848	25.979184	25.956200
744.000000	23.524569	26.796084	22.859487	24.367529	22.993893	25.114266	27.397529	24.794499	22.651422	24.052121	24.616131	24.880233	27.105688	20.791375	30.497063	26.109441	27.091958	26.258322	26.298345	25.732681
745.000000	22.623566	26.392704	22.599138	23.697483	23.449184	24.610350	25.168741	24.564545	22.690350	24.593986	24.703986	23.541492	23.540163	21.111655	29.856434	24.325944	26.541329	24.402121	26.759371	25.717599
746.000000	21.548858	24.937855	22.975012	23.569744	23.995664	24.536061	23.820023	24.665781	22.207063	24.456876	23.129394	22.471259	21.327599	21.464126	29.476084	23.512937	25.109021	22.080070	26.029184	25.060047
747.000000	20.283473	23.797413	21.917203	23.583800	23.631375	24.633403	21.780862	24.215408	21.203846	23.569021	22.608462	20.900816	19.595152	21.752238	27.450629	21.719301	22.802751	21.060443	24.323939	24.052401
748.000000	20.736084	22.189883	21.237226	22.653357	23.713077	23.927343	20.937296	22.751072	20.347319	23.484988	22.751748	20.665152	18.413683	21.945221	25.300023	21.004149	21.738345	19.840210	22.109301	24.593333
749.000000	19.584895	20.888765	20.674895	21.387063	23.465431	24.026597	21.446247	21.023217	20.326550	22.171515	23.368695	20.773450	18.992098	21.604709	21.996364	20.606667	21.181772	19.981096	20.393636	23.805455
750.000000	19.370303	17.739207	19.408555	19.994476	23.053963	23.384289	20.637995	20.238998	19.664709	21.948228	21.788508	20.603263	20.316923	21.121072	21.472960	20.058275	20.512844	20.813333	18.893170	22.079371
751.000000	19.253263	17.348974	17.925175	18.946993	21.505734	23.035291	20.225897	19.450559	20.156061	21.108159	20.530233	20.055431	19.893869	20.403566	20.757692	19.139510	19.909837	20.172214	17.185361	20.745152
752.000000	18.082774	17.346876	17.342448	19.345921	19.665501	22.010396	20.294056	19.007016	19.746993	18.530746	19.944172	19.168159	19.811422	19.690676	20.391702	18.464522	18.643450	19.624965	15.812075	19.454662
753.000000	18.069371	16.238928	16.556620	19.395851	18.950140	20.351981	19.948159	18.218345	19.272821	16.744779	18.178252	18.288741	19.629767	18.305828	20.158951	17.275245	16.881818	18.736131	16.530047	18.645315
754.000000	17.091212	15.915385	17.272308	20.534289	17.748019	18.676751	18.945221	17.271049	18.056014	16.190606	18.632774	17.504382	18.324452	18.521818	19.302657	16.492797	14.828998	16.901329	17.682797	17.479697
755.000000	16.369254	16.691818	17.757597	21.892238	15.964639	17.785212	17.431795	17.616364	17.633030	15.836597	18.938284	16.720536	17.863706	18.241958	17.466550	15.756737	15.421235	15.018368	18.289837	15.828555
756.000000	15.929138	16.941282	16.215942	22.353077	16.235175	15.922019	15.841748	18.045105	15.610047	15.430186	17.839517	15.965221	17.649534	16.491166	17.105897	14.404336	15.767669	14.069953	17.839207	14.669277
757.000000	15.712765	17.863166	14.711093	21.859697	16.335082	14.872019	14.726993	17.581772	13.449464	14.792448	17.129788	15.441841	16.496084	15.842168	16.746280	14.024755	15.433823	13.708205	17.069086	13.754685
758.000000	15.130368	17.090476	14.465219	21.173263	17.177086	12.454723	13.755385	16.122331	13.110699	15.046284	15.237177	14.957063	15.022517	15.384779	15.418587	13.139371	16.416154	14.254303	15.615193	14.380629
759.000000	13.699089	15.287865	12.980091	19.974918	17.645427	11.462205	14.065758	14.780350	13.180117	14.090590	14.163890	15.084545	14.761935	15.220000	14.446070	13.334103	17.558834	14.574198	14.978452	14.503124
760.000000	12.404450	13.081152	11.322445	17.377343	16.750613	11.152275	13.996970	13.919184	13.241445	12.554249	11.964399	15.015622	14.194802	14.576550	14.051105	12.734639	18.392005	15.828056	13.185830	14.486434
761.000000	11.438739	13.074345	11.394170	16.201650	15.703212	11.067823	13.466235	12.740163	14.217669	11.513970	10.249375	13.932149	13.725711	14.946303	13.095650	12.761538	17.965117	15.755550	10.797683	14.901492
762.000000	10.127214	11.811524	11.412399	15.135662	14.919247	10.965002	12.992098	12.165576	15.262350	10.628548	9.969242	13.105972	14.396294	15.318084	12.186023	13.078462	16.723450	15.838392	9.562753	14.940186
763.000000	9.437995	10.039394	12.334277	13.252946	13.326240	11.443175	12.566343	11.537394	14.553189	10.703191	9.674650	12.894923	14.583939	14.197168	12.341618	12.598438	14.966152	14.860070	9.933464	14.695828
764.000000	9.342329	9.950816	13.663872	12.736198	11.950995	11.359177	11.502170	11.302289	14.650531	9.620347	10.215117	12.939585	14.340886	13.478333	12.388387	12.315408	12.806921	13.570559	10.386401	14.260480
765.000000	9.761347	9.686503	13.391026	12.352382	10.760086	11.118242	11.185233	11.435086	14.509133	9.520324	10.777466	12.093897	14.764545	12.038487	12.085429	13.314541	11.749037	12.346783	10.499431	12.798779
766.000000	10.039529	9.262238	12.381606	11.499026	11.470795	11.169821	9.960839	11.332103	14.105809	9.701420	10.887312	11.447557	14.655371	9.964769	12.198063	13.712156	10.334270	12.284112	11.005133	12.753259
767.000000	9.998562	9.703730	11.253569	11.088862	11.735049	11.753499	9.900860	11.741846	13.140685	10.097923	10.705531	11.874154	14.033653	8.684646	11.679193	13.679289	9.061928	12.348133	10.707972	12.082210
768.000000	10.023235	9.706531	9.811984	11.029678	11.776343	10.574168	9.687529	12.203380	12.554448	10.818995	10.532744	11.959427	12.334042	7.871098	9.801009	13.471340	9.418373	12.358238	10.423555	12.369413
769.000000	10.084483	9.893021	8.256921	10.554986	11.947543	9.933783	9.820648	12.393368	11.225331	12.098895	9.930179	12.635706	11.088252	7.378786	8.990720	12.578252	10.752170	11.356219	10.421534	11.733096
770.000000	9.237960	11.136662	7.004263	9.459422	12.373380	9.206830	9.713807	12.295114	9.876152	12.569438	9.753629	12.908410	9.867343	7.430298	7.709741	11.570175	11.998086	11.736401	9.024107	11.349040
771.000000	8.466221	11.568872	7.160510	9.366881	12.294047	7.922599	9.282305	11.815312	8.665471	12.672923	9.426862	12.045872	9.488795	7.145816	7.190044	11.083333	11.740921	11.619748	8.002242	11.509669
772.000000	8.433907	11.254501	7.679457	9.180450	11.592385	7.620275	8.718105	11.220357	7.912893	13.058301	9.833681	11.121562	8.677352	7.408900	6.934762	10.247168	11.088664	10.660298	7.681916	10.860569
773.000000	7.714911	10.888590	9.194918	8.830629	9.325324	8.124800	8.743354	9.725070	6.696189	12.939592	9.902986	10.310096	7.623207	6.735394	8.181900	9.459441	10.628142	9.204580	8.247021	9.816615
774.000000	7.918904	9.838163	9.255492	8.528497	8.925131	7.393387	7.759156	8.640991	7.117655	11.565249	9.881704	9.492147	7.648138	7.333387	9.171100	9.329114	9.174580	9.245007	8.941252	9.251473
775.000000	7.324445	8.667576	8.779580	8.488751	7.335124	7.459830	7.465065	7.043776	7.189643	11.107907	10.544054	8.439674	7.446788	7.761380	9.718005	10.311865	8.397352	8.339210	10.223977	7.606841
776.000000	6.836247	7.604802	9.649186	8.183543	7.205676	7.210914	7.847359	7.001298	7.416161	10.606394	10.771016	7.873166	6.769438	6.681825	9.810200	10.338149	6.877186	7.830403	11.242054	7.012531
777.000000	5.984580	6.932238	9.588114	8.432704	5.236156	7.322140	8.222627	7.008669	6.776690	10.122946	11.454895	7.404354	5.906375	6.582643	9.467380	9.616385	5.907065	6.397436	10.399739	6.032044
778.000000	6.861343	7.279566	8.515049	8.919846	5.014925	7.001510	9.007923	7.517601	6.357886	9.176455	11.398676	8.455156	5.181862	7.129277	8.374883	9.299473	5.621960	5.791594	10.281685	5.126865
779.000000	7.484226	8.336217	8.198965	9.174690	5.616823	7.042030	8.691739	7.305385	7.012182	8.555417	10.524580	8.461809	4.889949	6.552527	7.854893	9.031273	6.563457	5.635893	9.660811	4.151797
780.000000	7.596604	8.466590	6.998974	8.908897	6.966620	7.353473	8.125193	7.243305	6.683049	7.190704	9.756296	8.448886	4.215135	6.280795	6.933098	8.633848	6.986984	5.832939	8.389042	3.748844
781.000000	7.551711	8.951135	6.157198	8.764217	7.024998	7.759198	8.176469	6.678459	5.872210	6.375930	8.427643	8.389858	3.954233	6.501091	6.079005	9.452312	6.907760	6.411559	6.936009	4.901133
782.000000	7.901508	8.864960	6.166429	8.268862	6.974005	8.480844	7.965189	5.909107	6.285811	6.072075	6.871455	8.552401	3.798350	7.118865	4.881772	9.288464	6.617725	6.736970	5.592254	5.535853
783.000000	8.142263	8.776571	6.062527	7.678035	5.894133	8.092678	7.417657	6.064075	6.266471	6.098126	6.613214	8.332072	4.548154	7.500392	4.474184	8.789874	7.029825	6.761037	5.260550	5.909287
784.000000	8.174531	8.522524	5.674075	7.191212	6.267277	7.846459	6.209156	5.597832	6.155844	5.724403	5.712310	7.394879	5.602392	8.229490	3.680389	7.848503	7.148811	6.711438	5.734361	6.608841
785.000000	7.381065	7.718343	4.852804	6.660142	5.352611	7.309324	6.158056	5.406065	5.277893	5.138047	5.546105	7.057305	6.951580	7.892685	2.608396	7.179357	6.779865	5.948336	6.148557	6.418804
786.000000	6.398601	6.531200	5.214093	5.811403	5.801324	5.696107	7.114443	6.253790	4.659277	5.030124	5.818026	7.003821	7.582186	6.536622	2.194748	5.779760	5.709028	5.542718	6.798319	7.064524
787.000000	5.359685	5.330748	4.768604	5.220760	5.907110	5.545252	6.926739	6.671098	4.220522	5.052893	6.660650	6.333601	7.531660	5.857573	1.882956	4.234359	5.017958	4.911058	7.219748	7.155711
788.000000	4.964953	4.730879	4.673573	5.182457	7.190923	4.664828	7.310506	7.316026	4.401723	4.700382	6.275527	6.716963	7.452284	5.694023	2.109727	4.067168	4.356172	4.900277	8.417140	6.645580
789.000000	4.417310	3.458713	5.765124	5.523876	7.912709	4.155114	7.085977	7.545082	5.300177	3.427445	5.949061	5.939639	7.210925	4.141515	3.475147	4.418639	5.070935	4.461674	9.011261	5.871923
790.000000	4.412622	2.944828	5.980012	5.179513	8.345594	4.586354	6.421998	7.502231	5.733270	3.612844	4.665851	5.231091	6.525741	4.170627	4.034480	4.545231	4.986748	4.112564	9.229049	6.062991
791.000000	3.653480	3.136904	6.550343	5.568557	7.615347	4.359317	6.505275	6.966746	6.514347	3.960352	3.396690	4.543499	6.572172	4.250597	4.570329	7.065040	5.292956	4.677855	8.701121	6.766818
792.000000	3.533718	3.293375	7.665138	4.910480	6.507268	4.193699	5.950245	6.909825	7.161809	4.327709	2.338312	4.162364	6.779142	4.062655	4.796823	7.786247	5.692571	5.145247	7.425469	6.757105
793.000000	4.617823	3.645772	7.954252	4.820963	4.863228	4.160711	5.322643	6.588133	7.001235	5.443786	2.254112	3.711578	6.635527	4.089093	5.551373	8.633049	5.894557	4.764179	5.824049	5.961886
794.000000	4.922485	4.011821	7.863154	5.209823	3.698028	4.927883	4.862420	5.431392	6.255928	5.518531	1.963140	3.340776	6.781536	3.948881	5.518037	8.754804	6.390674	5.351247	4.362210	5.772564
795.000000	5.237774	3.882555	6.291874	5.900534	2.746732	4.668639	4.403354	4.275881	5.592867	4.997049	2.648730	3.625804	7.613967	4.165685	4.598016	9.222047	5.718695	5.946681	3.282091	5.553075
796.000000	5.144245	3.879207	4.166284	6.207047	3.209774	4.386112	4.104601	3.396469	4.549660	4.935352	4.184294	4.363555	7.630828	4.162741	4.297786	9.014009	5.003105	6.711669	3.048855	5.707769
797.000000	4.904465	3.944987	2.631410	6.202928	4.002672	3.949745	3.807965	2.729311	3.923876	4.694209	5.677017	5.025247	7.382195	4.168329	4.355009	8.523974	4.453832	7.094036	3.210509	5.796402
798.000000	4.544284	4.133459	2.342960	5.734816	4.925503	3.369988	3.479760	2.390168	4.054424	4.196382	6.761897	5.381075	6.838497	4.190552	4.948273	7.776953	4.287114	6.829424	3.717578	5.680508
799.000000	4.089552	4.498189	3.956643	4.649350	5.778343	2.657294	3.086301	2.494797	5.280210	3.364636	7.073930	5.201231	5.970161	4.237517	6.256161	6.797958	4.719189	5.653476	4.520587	5.221622
800.000000	3.566119	5.092741	8.128168	2.793168	6.361266	1.822112	2.593902	3.158958	7.940140	2.121734	6.248112	4.255909	4.747615	4.317329	8.457259	5.612000	5.966294	3.301832	5.570063	4.281280
