Wavelength	Smoothed_1	Smoothed_2	Smoothed_3	Smoothed_4	Smoothed_5	Smoothed_6	Smoothed_7	Smoothed_8	Smoothed_9	Smoothed_10	Smoothed_11	Smoothed_12	Smoothed_13	Smoothed_14	Smoothed_15	Smoothed_16	Smoothed_17	Smoothed_18	Smoothed_19	Smoothed_20	Smoothed_21	Smoothed_22	Smoothed_23	Smoothed_24	Smoothed_25	Smoothed_26	Smoothed_27	Smoothed_28	Smoothed_29	Smoothed_30
480.000000	178.065734	152.079720	183.041958	192.062238	207.732168	204.113986	172.930769	193.611888	209.296503	219.647552	173.472028	185.007692	174.541259	177.235664	185.511189	160.137762	186.010490	183.509790	198.872727	175.253147	193.140559	167.792308	197.623776	200.112587	171.224476	195.238462	151.925874	152.273427	180.932867	188.861538
481.000000	186.474825	181.240559	190.628671	195.938462	201.985315	201.596503	179.990210	195.671329	199.456643	210.914685	173.682517	193.067133	177.817483	187.403497	197.323077	182.832867	183.041958	176.552448	189.269231	184.797203	193.009091	173.081818	196.288112	199.390210	176.831469	188.598601	172.336364	168.857343	182.633566	177.739161
482.000000	195.523077	201.905128	199.238695	200.653147	202.593706	202.820280	189.482284	199.101865	197.835431	208.000699	181.010023	199.952681	186.292075	196.206061	208.591841	199.468531	186.338228	179.175291	188.710256	194.269930	194.396037	180.540093	197.143124	200.791375	183.163869	188.703030	186.556876	183.958508	186.394639	175.702564
483.000000	205.374476	216.346037	208.888462	206.682284	208.371911	207.447436	200.988228	204.364918	203.013636	209.959441	193.780070	206.537179	198.716317	204.292890	219.494872	211.488578	194.599184	189.340793	195.399883	204.121212	197.611538	189.938695	200.325291	204.347319	190.584266	194.312238	196.534033	197.930653	192.351049	181.221445
484.000000	216.193007	226.835897	219.594406	214.501865	218.134499	215.140093	214.089277	211.921911	213.572028	215.844755	210.318182	213.693473	213.841492	212.313520	230.209557	220.336830	206.524709	205.011422	207.542191	214.800932	202.965734	201.049184	205.971096	210.089277	199.455245	204.186713	204.214452	211.127506	200.637762	192.765501
485.000000	228.142657	235.647319	231.372960	224.587879	230.696037	225.560373	228.366667	222.234266	228.091375	224.710490	228.949883	222.294406	230.418881	220.917483	240.913287	227.457110	220.814685	224.149650	223.341259	226.758974	210.768765	213.643124	214.217016	218.048485	210.139394	217.086946	211.544755	223.902797	211.389744	208.804429
486.000000	241.038228	246.230070	245.532401	241.459441	243.325874	238.989510	243.324709	237.624009	243.831469	233.590210	241.704895	238.599068	242.745221	230.867599	249.865734	233.931469	234.364802	242.997902	235.573893	239.536131	219.775524	226.617716	223.205361	227.754545	223.067366	228.672727	223.513753	234.020280	225.330303	231.515851
487.000000	254.631235	261.589977	256.991608	256.964336	253.614219	251.900000	255.072494	255.639161	259.651748	245.985315	257.189744	253.846620	258.342890	243.318182	262.253613	243.393240	249.178089	258.181119	256.256643	257.335198	235.983683	239.698834	245.394639	241.568531	240.003730	243.402331	240.155012	247.753380	243.543823	247.315152
488.000000	273.198368	283.438695	270.097902	273.713520	267.767832	270.948718	273.304196	276.610723	277.606061	256.631935	281.042657	265.941026	275.792541	257.254545	273.396270	256.474126	260.819580	277.268065	273.887179	278.372960	254.506760	254.226807	262.290676	256.570396	257.624009	260.915851	257.191142	265.607459	261.757576	263.598368
489.000000	295.953380	304.739627	288.868765	291.734965	288.808392	291.793473	289.359674	302.518415	297.206760	275.577389	299.604196	282.360140	290.777389	275.752448	287.682051	270.491375	273.633333	293.478555	290.752214	299.168065	276.141492	274.593473	273.734266	271.088811	279.608392	275.867133	273.114918	283.160140	283.692774	273.564336
490.000000	317.350117	325.555245	307.713287	310.433800	307.208858	310.889977	308.690210	323.520979	315.447786	295.689744	320.451515	304.017716	304.975524	298.323543	304.831935	291.030769	289.416550	308.593007	303.753613	317.527972	298.272261	296.928205	290.248718	289.727972	299.474126	290.756876	294.231702	300.931235	300.038228	292.030070
491.000000	343.638462	334.821678	327.635664	332.858275	328.787179	330.784149	327.967599	338.720746	336.364103	320.120280	339.393939	328.370629	321.953613	325.137296	319.093706	319.586713	309.678322	323.999068	315.372028	333.019347	320.895804	318.373427	309.812821	311.544755	318.931002	306.977389	316.052448	317.745688	312.584615	312.942191
492.000000	370.345921	350.719814	351.350350	354.734965	349.047319	352.729604	352.334033	359.305828	358.748485	342.992075	359.974825	352.856643	343.730070	350.798601	334.715851	352.217949	329.938228	345.093473	330.009324	350.532168	343.979487	337.125175	332.257576	333.423077	344.977156	322.078089	335.972727	334.258974	325.914685	333.680886
493.000000	396.229837	375.208625	376.240793	377.718648	374.891841	378.923543	375.533566	378.696970	381.548718	367.664103	386.441026	382.644289	370.068765	382.705361	360.636131	383.307925	356.472494	361.608625	353.963636	373.096503	363.054545	357.411189	356.224242	357.942657	366.791375	341.373193	355.077156	358.305128	346.869464	353.379487
494.000000	420.185781	399.524942	402.718415	399.512821	411.148718	402.728904	403.499534	393.984615	410.359441	390.341725	411.995338	406.899534	396.265967	408.178788	386.847786	406.448019	387.038928	383.786713	379.265734	395.088345	386.238695	386.665268	382.309790	381.188112	390.561072	369.491375	373.867366	385.279021	365.130070	374.975991
495.000000	445.813986	426.408392	429.122611	423.514685	437.629604	425.057343	432.574825	416.485315	437.633800	418.331935	434.894639	430.136597	415.808159	431.356643	417.028904	427.965268	411.268765	410.680420	405.820047	418.829138	407.113753	417.456410	409.937063	405.596737	413.871096	394.138695	394.322145	409.470163	385.043590	401.874126
496.000000	471.096270	460.334033	451.607459	451.715152	461.895338	449.465268	461.907692	440.928205	465.806760	445.292541	458.270862	458.029371	439.942191	449.546620	446.787646	454.586946	438.237296	442.053846	431.158275	441.504429	427.450350	439.188112	434.111189	426.516084	437.765734	417.804662	423.659907	431.430303	409.035198	431.004429
497.000000	497.638462	492.685082	471.124476	476.393240	485.189744	477.474825	486.746154	468.366900	493.581585	479.244755	484.429837	480.556643	467.223310	470.277389	474.337762	480.655245	464.801632	473.668065	462.319347	466.855012	452.416783	462.036131	460.708858	454.896737	460.745455	446.529371	445.323077	458.207459	434.920746	453.215851
498.000000	525.748718	524.281585	499.109557	506.402564	508.833800	506.818182	514.323543	497.754545	523.281585	508.741725	519.106294	504.266667	501.715385	488.976690	502.751515	507.504662	497.090909	507.328671	491.700466	494.558974	475.696503	479.747319	487.322378	479.150117	483.021678	477.895105	471.224242	486.135198	459.549184	476.062704
499.000000	553.385082	556.020979	530.134499	531.533800	531.157809	535.304429	539.789044	532.377855	549.214918	538.776224	540.654779	530.524709	533.846853	506.859907	531.793240	528.429371	530.749650	535.135198	520.389977	520.273427	501.375524	508.579953	509.255478	504.145455	505.963170	503.409790	501.135198	512.903030	487.572028	499.469464
500.000000	580.690676	584.505361	559.415385	553.164802	551.248485	558.840093	565.539627	569.325874	575.326807	564.185315	566.963869	554.374359	560.752214	532.928205	559.809557	557.762238	556.310256	560.224709	548.086480	547.785548	530.994639	534.088112	533.422844	533.116550	525.161305	529.054312	531.421911	534.283916	515.585082	524.278089
501.000000	609.192541	605.073193	590.920280	573.119114	581.314918	582.433800	594.100466	601.141492	594.815851	588.898601	591.260839	576.980886	585.993706	561.172727	584.634732	587.219347	582.077622	586.460606	577.598834	570.796737	554.344522	553.962937	558.493939	559.439627	546.521212	557.619114	564.438928	550.699301	542.396737	553.721678
502.000000	640.420047	638.311888	625.603497	598.455944	613.042890	606.850816	623.127739	632.557343	617.265967	612.932401	617.372960	599.697436	614.623077	595.492075	601.395571	619.488345	606.044522	610.999534	605.947786	595.771795	575.924942	567.818415	582.158974	586.171562	575.530303	585.013287	592.565967	568.054779	569.807692	581.665734
503.000000	670.113287	672.294172	659.693706	623.307692	641.542424	632.811888	657.251748	660.306061	645.005361	639.227040	644.020979	626.757576	640.713287	637.406294	625.105361	641.508858	627.889510	627.610256	635.418415	622.865268	592.420280	596.531235	605.244289	608.865734	595.515851	616.245221	619.865501	595.732867	603.332634	607.427972
504.000000	693.771795	695.933566	691.572494	641.547319	674.659441	654.868765	692.361072	680.707925	674.323776	659.484149	666.823776	655.113986	666.206294	669.881818	648.827273	662.527040	643.176457	645.338695	657.448718	650.131469	616.303030	629.055944	637.434732	631.994872	624.471096	645.780420	643.508625	622.295105	627.019114	634.275524
505.000000	713.590443	720.403263	713.181352	670.078788	700.096037	679.283683	720.642657	700.692308	702.408625	683.816317	695.592541	686.962471	686.960140	693.135897	674.722378	684.940093	661.208625	668.320047	676.029138	670.415851	642.466667	657.419814	659.908159	651.052914	653.537529	667.363170	663.594872	645.605361	650.947786	655.310256
506.000000	737.280886	747.271795	726.466200	697.463636	727.106993	713.041725	744.925408	711.238928	727.041492	709.728671	726.898834	711.575058	715.640326	712.663403	699.445921	704.591608	681.435198	697.186713	693.933333	693.127506	669.194639	676.234499	679.013520	677.342424	679.898368	684.566667	686.757809	669.387879	670.957809	677.237296
507.000000	759.201166	771.897902	738.890909	729.883683	744.569697	739.628205	766.881352	727.797669	745.942424	734.546853	756.871562	733.696503	741.392075	729.052681	717.274126	726.002331	707.557343	719.926807	715.285315	715.886247	698.929604	702.843590	695.049883	705.312821	699.722844	709.982051	702.233100	700.929138	693.426573	694.027506
508.000000	780.727273	790.091841	766.261538	766.014219	759.759441	765.941259	777.455944	746.912121	757.555944	761.644755	785.294872	764.473660	772.649883	742.943357	745.265035	747.837063	740.886713	738.273427	736.095105	736.501632	733.984615	719.528904	717.524709	728.879487	721.515851	729.775991	722.234033	723.293007	709.179254	710.431235
509.000000	809.005128	804.862005	794.870163	796.291142	775.666200	791.845921	798.013520	763.049184	767.693473	789.314918	802.691375	789.482517	803.048951	761.646387	768.884382	770.027273	765.235664	749.775058	762.281818	754.474126	756.883916	745.142657	745.745688	748.873427	747.044056	741.252448	743.241958	745.972261	727.172960	726.485548
510.000000	831.019814	817.008392	814.903497	818.878555	796.935198	814.427506	806.257809	788.496270	779.772261	811.842890	824.455245	809.670396	821.402098	781.356177	790.229138	786.693706	780.124709	767.263403	779.910723	774.926807	783.238928	763.869464	765.508625	771.391375	764.665035	750.075758	758.476457	755.495338	750.890676	743.440793
511.000000	855.368765	833.453380	834.475058	843.268298	820.357110	841.559441	822.304895	799.708625	785.595105	836.575291	849.367599	830.225641	830.445455	796.551282	804.997669	801.598368	796.342191	789.063403	794.205361	791.731935	803.127972	776.668298	791.749417	795.294406	782.540793	763.612354	776.181585	762.413520	767.180420	762.346620
512.000000	876.278788	849.813054	856.063636	868.019814	844.416317	857.060140	836.635431	817.041492	809.451282	853.730070	866.203030	839.985548	845.020746	813.690909	815.339860	816.512121	814.955711	811.479720	808.878322	802.248485	819.915385	791.216550	807.340326	815.358741	801.740093	770.464103	785.615152	773.496270	777.125408	777.812121
513.000000	896.817483	866.724009	874.141725	880.411655	864.347086	873.609091	858.882517	835.023077	837.372494	873.227739	880.427739	846.083916	857.097203	832.454545	838.747552	824.908858	822.835664	833.405828	823.558275	812.428438	829.077389	810.488811	821.291375	828.336830	809.936131	791.075991	797.193240	789.243590	794.699534	795.056410
514.000000	914.329604	874.144056	886.270629	894.372960	884.018881	883.711422	873.167133	851.395804	864.471795	884.302564	891.150117	867.680186	869.073893	843.796270	859.266200	842.533333	827.608159	852.762471	838.862704	825.570629	840.833333	825.389977	836.457809	838.044522	821.603497	809.757576	809.229604	808.665501	810.107226	810.797669
515.000000	925.433333	887.665734	891.713054	914.000000	901.443823	891.513986	887.589744	870.421445	880.845688	895.757343	903.242657	883.997203	871.793007	850.571795	876.737063	853.756643	840.895338	872.210023	843.271562	837.009790	853.681119	835.011655	838.191608	838.157576	837.080420	826.483683	823.509091	825.482751	824.495571	818.738695
516.000000	936.457343	900.628205	897.998135	917.378555	919.216783	903.723543	898.452914	883.545455	896.587879	908.849417	904.207692	895.768298	878.967366	862.423077	899.365268	861.056410	848.116317	883.379254	848.151748	844.868298	856.109324	839.921212	839.950583	850.060839	845.016084	843.457576	836.077156	840.171329	830.192774	829.451748
517.000000	952.880186	914.572261	907.034266	932.405594	927.387413	901.022844	906.881818	905.192541	913.480653	912.788345	905.417016	903.527739	883.981352	873.814452	908.859907	874.643124	855.920513	885.793240	862.853147	851.069930	858.582051	852.181585	835.238228	855.220979	850.218415	855.473427	849.900000	853.012121	839.835198	838.136830
518.000000	969.251981	926.776224	920.326340	941.638928	927.168998	899.058275	906.226807	912.408858	919.201865	910.428205	902.662704	903.813986	888.221212	891.119114	921.761305	884.254779	867.459441	882.205128	874.789510	858.318182	870.889977	850.431469	842.296737	864.506527	858.877389	869.412354	858.519580	851.914685	841.907692	843.842890
519.000000	973.580886	928.788811	936.426807	945.686946	921.515385	898.203963	912.073660	915.889977	918.694872	910.434033	901.665035	902.128904	892.656177	904.613986	929.475291	889.701865	874.016783	877.775524	894.332168	864.326107	861.405594	858.941492	851.174825	858.728438	873.635198	869.233333	868.962471	850.964802	846.458974	843.544988
520.000000	974.703963	924.302331	941.554779	942.417716	917.862471	897.273427	898.771795	921.456643	924.326807	908.567366	906.299068	900.027040	884.773427	911.644289	927.046154	885.329138	871.996037	875.841958	893.342657	868.679720	869.809790	865.564336	853.035897	868.970862	873.447786	866.914918	867.786014	841.713753	848.676224	849.526807
521.000000	971.368065	926.422844	942.124009	933.206993	922.130536	902.794406	893.353846	915.852681	923.712354	899.115385	915.307692	896.626107	875.272727	915.640093	915.213520	886.365035	872.266434	878.827040	888.849184	870.825175	876.012354	869.142424	862.573193	878.122844	875.428438	858.391841	865.791841	839.589510	839.415851	851.544289
522.000000	965.073427	930.013287	935.326573	923.618415	926.054545	900.279720	891.889744	915.076690	922.824009	883.951515	914.846620	890.445688	881.306061	910.345455	908.637296	885.880186	871.178555	887.226573	888.246853	871.974126	876.031935	872.225408	861.597902	880.121678	867.317016	842.908392	861.272494	832.070163	833.665035	850.945688
523.000000	957.817483	933.009091	926.143823	909.902564	923.409324	909.377855	899.936830	907.786480	916.232401	879.306061	920.424476	893.110490	890.128904	905.607459	905.450117	884.214219	868.627040	886.084848	885.832634	871.829604	870.541026	862.342424	862.051049	883.490210	858.912354	840.495338	859.444056	830.167832	827.493240	854.209091
524.000000	943.067133	924.926807	909.663403	913.885315	916.230303	906.113986	897.276923	904.247786	907.690909	874.573193	915.758741	901.431702	887.777855	896.769930	894.739161	888.455711	862.017716	883.241259	880.279720	875.440093	861.919580	856.251282	850.909324	873.256876	851.490443	827.693473	851.783450	833.384848	823.018881	854.319347
525.000000	928.345688	917.106760	898.991375	903.991841	913.590210	897.746154	900.696037	902.306993	891.610490	874.817016	907.795338	906.468531	882.553380	882.696037	882.433566	880.093706	850.995804	872.224009	870.549650	871.904429	857.217249	849.526573	840.750117	853.434266	844.087179	821.310023	839.397902	830.128205	823.925874	850.428904
526.000000	913.363170	899.867599	899.302797	889.488112	914.696037	894.355478	900.893007	892.899767	884.818881	873.246154	892.929371	908.037296	869.375291	874.141026	872.188345	865.636364	832.824709	859.127506	862.306061	853.197436	843.263869	839.229837	830.905361	838.137529	831.820513	817.602331	827.686014	824.796970	814.241259	841.086480
527.000000	907.131469	891.137529	894.685781	884.535198	900.434033	883.890210	894.345455	885.929604	877.935664	863.551049	876.753147	894.533333	861.325408	856.148718	857.185548	848.232867	819.445221	849.916084	853.774126	837.933333	829.645455	831.593240	823.939860	823.267133	819.083916	810.666434	815.311422	816.533100	807.967366	827.029837
528.000000	899.515851	889.867133	886.994872	871.676923	886.736364	872.928671	888.379953	872.132634	861.549184	849.103497	861.516783	871.692075	850.695338	839.886713	846.644289	837.009557	815.517716	827.629604	843.260839	828.512121	824.030769	822.855711	814.942424	810.290210	808.114918	814.491142	797.508625	805.359674	807.701865	804.396503
529.000000	884.688578	876.214918	885.655944	855.052914	866.571562	860.924709	874.927739	855.398368	845.072261	846.332867	849.393939	848.654545	838.793240	824.465734	832.556410	823.426340	813.961772	806.088811	835.343590	814.396503	808.859907	822.976923	796.462005	790.865734	798.064802	802.698834	782.947319	791.978322	801.923310	786.880186
530.000000	877.437296	863.529371	880.699767	833.895338	854.778788	844.837063	849.046853	836.276224	834.795338	841.441259	838.715152	826.890676	816.003963	810.854779	816.505828	813.018648	809.868065	796.796503	817.460373	797.528205	802.466900	811.117249	793.595571	781.311422	776.813054	792.280420	762.774825	780.641259	790.521678	771.449184
531.000000	868.529837	859.007459	863.522378	810.447552	850.533800	830.711422	828.996970	822.745688	819.683916	825.961772	823.954545	803.198834	800.947786	800.352214	806.787413	805.413054	803.505828	795.552914	794.702564	792.424709	787.524242	799.337529	787.817483	768.262238	760.414918	778.090210	754.477156	772.282984	774.624242	757.753846
532.000000	859.848485	854.545455	843.680653	800.513054	837.859674	819.178555	814.046853	809.541026	802.635431	817.002564	802.798368	782.980420	794.939394	789.155012	799.478788	792.313520	793.471562	787.638228	776.626107	780.646154	769.766900	783.352214	774.214219	758.369697	746.358275	762.070862	746.876690	756.603963	755.801632	747.231469
533.000000	842.606294	835.600466	823.815851	789.268531	818.165967	814.066900	801.065501	791.085781	788.366667	803.093240	781.656177	765.748485	789.337529	775.714918	798.255245	780.262005	781.925408	774.509790	757.589277	771.140559	751.889277	760.996737	759.496270	757.504895	742.081119	745.224942	737.023310	747.180653	734.533800	739.618415
534.000000	826.738928	808.830303	801.473193	791.772494	798.489977	796.669930	781.144755	774.562471	770.995571	783.179021	760.138928	744.172727	772.249184	768.563869	790.880186	764.537995	758.359674	764.416084	736.268065	761.960140	736.692774	741.260839	739.503963	738.036131	727.800233	723.683217	724.930303	733.164802	719.261072	730.594406
535.000000	809.941259	787.579254	784.512354	776.864336	781.212121	775.858042	766.205361	756.749184	751.541725	769.234033	746.177156	729.233100	749.247552	753.626107	776.914685	744.334033	730.583683	751.851282	729.060373	748.137529	724.913287	726.664802	729.388345	713.337296	712.694639	706.736597	713.966900	723.337529	712.726340	721.904196
536.000000	785.309324	758.258974	770.886480	768.496270	765.374126	761.033333	752.491608	741.239161	741.303030	749.445688	731.051748	711.481119	718.075058	742.260373	756.348951	722.383683	706.598368	740.869231	716.284615	729.568531	703.920513	711.196503	713.838228	693.940793	695.428205	696.125874	703.494639	708.065734	695.667599	710.242191
537.000000	761.917483	739.993473	753.240559	750.591375	742.757576	747.985082	736.124709	727.898135	728.898135	733.394639	714.585082	697.434965	704.638695	720.093473	733.435431	703.213753	686.072028	723.254079	699.499767	711.096503	686.661072	693.668065	704.289977	679.648485	682.424242	696.705128	689.519814	697.071096	686.792308	687.056876
538.000000	742.761305	723.711888	736.217949	730.403963	724.385548	734.451049	719.987646	711.806527	710.676923	718.531002	705.321678	687.440793	695.649883	709.237529	708.098135	694.439394	662.889977	697.203030	680.772494	699.606061	674.334266	676.992308	686.596970	668.656177	671.729138	691.345688	676.574126	683.715152	679.393240	666.402098
539.000000	723.489744	703.733800	717.545221	710.972960	700.234965	714.761072	704.901865	690.344522	697.316317	705.668765	696.106527	682.547786	683.555944	705.595571	681.240559	682.071329	652.623310	673.785548	663.345688	679.907692	658.854545	666.358741	668.703030	656.539394	659.170163	678.086713	659.962704	663.425408	663.032401	656.684382
540.000000	703.500932	689.639627	700.395105	688.067832	684.417716	691.452914	689.101399	676.570862	680.853846	688.205594	683.013753	679.781119	663.434965	694.018182	662.943124	669.367133	639.953846	663.457110	648.109790	659.407226	645.324009	651.348252	662.260839	643.906993	642.151515	664.286713	642.664569	647.864569	652.710490	644.903730
541.000000	687.328671	677.569464	680.029604	669.027739	670.644988	675.890210	674.216084	666.304662	670.218182	672.598601	675.913287	668.066667	650.381352	684.328205	649.994406	655.114918	629.504895	649.967366	634.991841	647.412354	633.722378	643.795804	640.903030	632.783450	629.827972	655.463170	634.227506	633.501166	639.820746	635.213287
542.000000	673.758741	660.293240	661.694639	655.701166	653.980653	657.579487	662.588578	658.443357	658.277156	660.855944	656.277855	653.390676	639.033100	668.718415	631.628904	635.241259	622.647552	636.685781	626.693473	627.375058	623.462238	633.877389	622.089744	624.251282	620.029138	641.649184	619.375524	619.045921	621.319114	623.711888
543.000000	655.107692	645.847319	644.152214	640.423543	642.680420	647.574126	649.526807	644.370163	644.880186	643.418648	641.508625	642.106061	625.728205	646.455478	622.683450	621.459441	613.695571	628.086480	615.353380	612.705828	616.610723	618.681585	605.400699	618.201166	610.151049	626.381119	605.234732	607.161305	605.265501	603.754079
544.000000	637.725874	628.758508	633.946387	630.958741	628.430070	632.585082	636.713520	634.397669	627.009790	627.015385	631.903263	625.214219	610.644988	635.646387	613.666434	605.008392	600.389744	620.368298	596.049883	597.501632	609.034266	604.204895	591.582984	604.834499	592.992541	607.771329	588.951748	589.921445	593.722611	594.764569
545.000000	622.177855	619.115152	619.101865	612.219114	618.724476	616.703730	618.773660	618.644522	609.183450	615.636597	619.955245	611.347786	593.141958	614.729371	601.485082	597.243357	592.952914	611.349883	592.621445	582.317016	601.034965	594.217716	576.635431	590.627739	578.245455	586.862471	580.163636	574.192774	584.297436	584.637063
546.000000	608.397902	605.956410	605.697203	598.936131	608.789044	602.427739	602.227739	607.836597	599.281119	600.458275	601.545921	598.491608	580.549883	591.837296	587.038928	584.827972	587.400699	594.069697	584.186247	568.253846	587.771795	581.474825	558.066434	577.078555	561.074825	574.675524	572.557343	561.440326	573.944056	568.650350
547.000000	593.693706	593.277622	596.183683	583.038695	596.563636	590.571096	583.434499	593.333333	587.589510	594.868298	588.835431	582.896270	576.597669	572.861772	571.524242	571.828438	573.558275	575.888811	572.846620	557.230070	576.105128	568.790443	545.982751	564.619114	550.125874	564.263636	566.661072	555.394172	567.221445	546.155478
548.000000	586.145221	581.963869	586.168765	572.700000	576.359674	582.343357	566.720513	575.244522	574.442657	583.362005	578.026573	570.668998	572.099301	563.200932	564.360606	558.023543	557.480186	566.120280	557.169231	549.935198	563.745221	556.569464	534.232867	552.477389	539.520513	547.389510	558.743590	546.030769	557.352681	531.316550
549.000000	577.934965	572.747786	570.854079	566.743590	561.805361	566.291608	557.244289	559.474359	560.150816	572.030303	565.713054	562.507925	562.290909	553.920746	557.666434	547.326573	549.683217	549.388578	543.868765	538.866434	551.283217	547.686946	524.439161	544.581585	528.292075	533.172727	541.622378	534.877156	551.993007	523.060839
550.000000	568.515385	568.107692	560.928671	555.035431	547.552214	555.428671	553.468998	549.296503	545.528671	561.662937	555.560373	545.759674	547.129837	539.720746	553.043357	537.985315	538.413986	535.510256	533.293706	528.241026	542.979953	536.441725	520.655711	534.779021	518.284149	520.373660	525.355245	527.381352	548.406993	512.374592
551.000000	560.840326	560.341958	551.006760	546.009557	537.247319	547.782517	541.963170	535.407925	540.368065	552.184615	554.667832	525.696503	536.778089	527.427739	544.817249	527.987879	530.300932	525.074359	523.466200	524.566434	534.661538	530.354545	508.139627	521.554779	512.356876	513.050816	513.650816	519.565035	538.972727	504.030769
552.000000	552.460373	548.188578	539.251748	538.458508	529.765268	537.158974	537.497902	526.405828	536.386713	540.616783	536.968065	514.899068	529.570629	516.300466	538.026107	519.448718	525.317483	514.849883	511.506527	517.449650	525.949883	524.604895	507.414918	510.368531	504.915385	504.266900	504.150583	513.740793	526.344289	491.328904
553.000000	540.176690	542.764802	528.423077	528.275291	530.690210	527.799767	529.656643	516.568998	533.022844	530.590443	528.111888	509.731002	519.212121	513.302564	531.051049	514.408858	513.302098	508.889044	502.991841	510.386014	515.606294	515.204895	505.972960	502.740793	502.035664	499.282517	496.729138	507.132401	510.342657	483.987646
554.000000	525.864802	533.802797	519.148718	518.803030	527.733800	518.744056	522.410723	509.285548	528.933566	521.363869	518.179953	501.561072	515.484149	513.354545	524.157576	507.228205	502.616317	507.941259	493.497203	502.733100	505.699301	503.739627	503.809324	497.455711	494.794872	492.308625	488.457576	494.666200	503.676457	486.512587
555.000000	519.655245	523.232168	510.241026	511.554545	526.933333	509.022844	514.380420	497.468531	519.018415	507.808858	505.403030	499.720513	506.993939	504.869464	512.973660	505.468065	491.359441	502.299534	493.040326	494.357576	502.010723	492.554545	497.468998	490.824709	489.471329	488.072727	488.438462	482.368765	494.089977	485.307692
556.000000	515.365268	512.372494	497.762238	508.716550	522.737529	500.300699	505.478089	491.517949	514.248485	500.920979	491.258042	496.951515	498.212821	496.910723	502.579487	499.839394	487.465268	492.275524	493.091608	485.982051	496.815851	488.793939	489.456177	483.566900	485.166667	480.773893	491.486247	478.112821	484.246387	480.745221
557.000000	510.974126	504.220979	498.986713	507.394172	519.572028	494.541958	497.137995	490.678788	512.692308	493.732867	483.291841	490.616084	494.191841	499.810023	495.296970	493.957809	482.711655	486.994872	494.367832	481.707459	487.491841	488.344755	483.403963	479.336830	474.968765	474.265501	487.366200	474.741725	481.508392	478.251049
558.000000	511.005594	502.637995	490.544755	504.711189	511.331935	489.873893	495.436131	488.388578	510.136364	485.593240	478.413753	484.307692	487.289044	500.731702	495.034499	483.610256	481.122145	487.089977	491.489277	474.851049	483.331235	483.784149	478.355944	477.668531	467.968531	473.334965	476.693240	466.072028	481.714452	475.825641
559.000000	506.093473	499.628205	484.927739	503.400000	504.755711	486.658741	496.584615	485.801865	500.217716	482.329837	479.257110	476.906294	476.040326	494.731235	492.125408	474.900699	482.595804	480.288112	487.565268	467.276690	477.259907	472.681585	474.297436	477.162704	460.027506	475.331002	465.661538	465.037063	483.821678	470.975991
560.000000	504.326340	497.869697	491.789744	502.586946	494.825408	490.515152	499.301399	486.484615	497.190443	482.211888	482.043590	469.997902	469.028205	487.852448	488.901865	468.582051	480.898601	478.843590	479.530769	459.311888	474.831235	465.572028	474.115385	476.675291	456.202098	473.677389	457.947786	464.302098	480.519114	467.107459
561.000000	500.323077	494.827273	495.216317	497.093706	491.021445	491.292308	497.112821	484.241026	494.346387	477.357110	485.517483	466.292308	473.521212	484.433566	489.378788	468.496037	476.791841	479.516550	470.459674	459.898368	472.822145	465.022145	469.625641	473.174825	455.909557	470.095338	457.831469	464.084848	476.664569	462.377156
562.000000	498.985315	496.434499	494.445221	488.211655	488.011655	493.760839	496.278788	485.964569	496.440559	474.217716	481.050350	466.982051	476.824476	480.742424	491.037296	471.517016	476.425641	475.983683	463.605594	462.831702	474.695571	462.272960	468.733800	468.541492	457.911888	466.918415	462.172028	463.180653	476.302797	450.614685
563.000000	494.438228	494.522844	496.360839	482.200000	488.962471	488.114685	493.069697	483.678322	496.110023	475.260839	478.245221	465.520047	474.527506	480.569930	490.480653	474.165734	473.062704	479.070862	465.189977	469.611422	472.801865	462.873427	466.152448	462.560606	461.190909	460.158275	463.373193	462.253613	475.713986	449.018881
564.000000	494.022145	494.085781	493.349883	482.365501	488.567366	488.232634	488.738462	482.534965	494.503263	475.827040	476.727040	470.171795	479.718415	481.734033	489.600233	479.661072	472.988345	479.006993	464.123776	478.068765	473.878555	458.749883	465.515152	457.263636	466.661772	455.094406	464.829604	463.053380	476.243124	446.571096
565.000000	498.666667	483.837529	494.636830	488.220280	488.136597	480.670862	487.231002	483.785082	492.569697	474.020513	473.268998	473.799534	477.514219	474.219580	487.400000	479.171329	469.797203	474.465501	468.618648	483.109790	473.941492	461.632401	467.352914	455.356410	474.495338	457.423077	466.924009	463.911888	472.813054	444.719114
566.000000	505.073427	484.023077	487.310490	492.805128	489.183683	481.048718	482.650816	485.561538	496.384615	481.508392	473.366667	477.335897	476.177622	472.408625	481.446853	475.266434	473.978322	469.887179	482.210256	486.548252	478.998135	467.565734	475.153613	458.003497	481.638695	458.387646	471.871795	468.072960	473.592774	449.950117
567.000000	513.375524	486.317949	491.930769	496.158042	495.766200	478.777855	488.409324	487.635198	499.868298	485.589044	478.050583	480.972261	479.907226	476.998601	483.977622	476.480420	478.304429	467.526107	489.703030	491.180886	478.355012	473.156177	481.696037	459.846853	482.846154	465.106061	477.518648	472.805361	479.839161	457.770629
568.000000	514.620979	489.919347	488.785548	501.560140	498.803263	477.796270	492.945921	489.975058	503.303497	488.604662	483.298135	486.491375	480.803963	477.120047	488.621445	476.135664	481.727506	469.657809	493.827972	493.876923	482.683916	475.955012	490.048718	466.104196	491.126107	475.626573	478.205594	480.235198	481.354779	464.975524
569.000000	517.547086	495.701865	494.127506	506.893473	499.490909	483.272261	496.622611	494.144988	503.967832	492.326573	493.714452	490.268065	481.606294	468.477156	489.210023	480.791375	486.974359	477.752914	497.579720	500.159674	482.044755	469.068531	495.799301	474.086713	492.485548	486.101632	484.158275	489.483450	482.626573	474.460839
570.000000	520.904895	502.103497	500.780653	513.914918	504.039161	496.141026	501.327739	498.467599	506.845455	493.587646	504.698368	494.997669	490.928438	468.989044	489.998135	485.584149	488.287879	487.606294	496.232634	502.711189	487.282517	476.116550	501.046620	482.534499	493.724476	495.766900	492.204196	495.212121	489.393007	487.443357
571.000000	518.841026	514.025408	508.503030	515.468298	510.911888	507.644289	505.355012	501.423077	508.375291	498.256876	515.766667	495.858508	500.494172	474.917949	498.631235	499.486014	491.531469	495.999534	501.309091	510.494872	493.643357	489.465501	509.510023	492.048252	493.882984	502.383683	501.559207	496.788811	494.046387	493.386946
572.000000	522.138228	526.619580	513.145221	515.099767	516.514918	519.055012	508.422378	509.902098	516.980653	503.257809	523.176923	497.900699	504.700699	480.805828	508.122611	513.170629	496.780420	507.165967	508.670396	519.552448	503.628205	498.451748	509.059207	498.692774	497.355944	508.573427	504.203030	494.707925	501.552914	499.139394
573.000000	519.522145	538.535897	523.293706	520.776690	514.725175	529.470163	511.283217	517.359441	516.533800	507.051748	527.019580	503.194872	508.140093	495.504662	518.688578	524.299767	505.203030	515.482051	518.684382	524.948951	512.639627	513.597203	509.088345	506.661072	500.227739	510.693007	506.112587	497.012821	512.150117	504.398368
574.000000	523.220047	553.167832	531.390210	527.727972	516.151282	539.369697	515.526573	532.467133	519.819814	509.810023	531.975291	513.627739	522.337762	512.826807	525.573893	535.385548	513.584382	520.341958	524.245455	530.441026	524.282984	530.240326	514.090210	519.709790	510.812121	517.939627	510.731235	501.889977	518.614918	513.168531
575.000000	528.678788	554.179021	542.555478	538.920280	524.137762	543.447552	525.784848	546.616317	526.902331	520.626807	531.173427	520.541958	531.303730	526.376224	534.778555	534.739860	522.820979	522.151981	536.398135	533.182984	534.921212	543.792541	519.987646	533.590210	520.844988	527.403963	521.538928	508.476923	527.750117	521.565268
576.000000	536.357110	565.888578	546.086713	545.679953	540.007692	553.612354	535.123776	560.063403	537.423543	535.589277	540.500466	531.680653	542.037529	541.932168	542.635431	534.993007	531.671096	529.789510	547.455245	532.826573	546.932867	550.757809	532.855711	546.461772	527.331002	531.593473	539.972494	517.939627	540.838228	533.829138
577.000000	548.524242	573.667599	557.431702	558.851748	552.829138	560.717016	554.854312	565.595804	550.919814	548.933333	546.998368	543.494406	555.713520	556.385781	559.650583	545.414918	540.906527	540.044755	556.063170	538.975524	555.525641	557.280886	547.515385	562.619114	543.772261	541.796270	557.796503	531.159674	550.821212	546.007459
578.000000	556.056410	579.145921	568.933100	569.502098	565.411888	568.659441	566.693473	577.591841	565.021212	557.241492	556.516084	556.923776	566.713986	570.472494	568.625175	558.393706	554.109790	556.416084	564.289044	553.114219	566.989744	565.078788	569.176457	579.366667	560.728904	553.708625	570.383450	546.794406	563.495105	556.401399
579.000000	575.947086	591.512587	578.969231	580.573660	580.698368	577.843823	580.221678	584.989977	574.593007	567.182517	566.503030	566.605361	580.814685	579.822145	578.136131	572.565734	566.161072	574.496503	570.616550	567.711655	576.206294	571.006294	585.713520	590.736131	573.373893	564.657809	583.487879	557.223310	570.262937	572.788578
580.000000	594.080420	603.520746	588.806527	589.962005	601.883916	593.470862	592.495338	589.891142	588.466200	581.406760	581.555012	575.563170	588.698368	587.860373	589.854079	579.147319	579.228671	593.618881	579.837762	581.290443	588.145455	584.475758	602.425641	600.093007	587.182751	581.180653	600.571329	575.206527	585.333333	584.853147
581.000000	608.442890	614.558974	601.412354	598.569697	620.539627	606.482284	605.561072	593.162937	600.497436	597.689510	599.004196	590.124242	600.285548	604.127040	606.231235	587.131935	594.677622	610.965967	592.584149	595.984848	597.863636	598.816084	620.862005	611.332168	597.798834	597.794172	615.582984	590.854312	595.008392	600.723310
582.000000	621.360373	624.250117	614.308159	615.158741	635.861072	616.731935	615.999767	598.617249	612.467366	611.037762	615.427739	611.442424	604.622611	615.374126	621.558042	594.188345	608.420280	625.999068	603.028205	613.963170	603.085548	611.742424	628.996970	617.801399	614.484382	612.968531	622.150816	607.501166	607.259674	615.231469
583.000000	639.937063	638.781119	625.330070	632.708392	639.311888	629.252914	627.722378	610.447786	618.027972	629.183683	632.935897	636.685781	612.945921	631.913287	635.095338	603.489510	626.151515	635.763170	615.877622	625.446853	617.678089	628.162704	638.473893	627.041958	626.611888	628.906527	633.393007	627.851748	616.513054	624.818415
584.000000	655.506061	657.692541	642.219580	646.953147	650.933566	638.575291	637.129604	619.204895	633.699068	645.334499	646.450816	654.546387	630.300000	643.228671	650.775991	612.522145	643.534732	650.880653	628.632401	642.975524	636.845455	644.270396	651.548019	639.748951	641.657110	644.346853	644.724009	646.576690	618.770629	640.452448
585.000000	668.730536	667.702564	660.478322	666.662471	665.637995	648.390676	641.909790	635.027273	649.916783	665.446154	657.214452	674.158741	649.230303	659.311189	669.436364	622.911888	664.994639	659.504429	646.715618	663.155012	653.894639	650.806061	659.556177	651.303263	654.413054	655.930769	658.748718	665.893939	641.319580	654.031235
586.000000	677.962238	687.724009	672.975291	676.945921	672.492308	657.641026	652.974126	653.063403	671.139860	678.971096	675.902564	694.396503	671.507226	667.231002	683.355711	635.349184	679.254079	671.818415	661.697902	678.176457	664.793473	661.056177	669.889977	662.283916	662.165501	665.241259	671.189744	682.615851	663.335431	670.386480
587.000000	681.818415	699.774359	688.720979	698.337529	675.010490	675.080186	672.437063	672.109324	689.324942	689.680886	692.113753	703.538228	690.015385	674.927040	698.996970	660.281119	692.260839	686.181818	681.825641	693.410256	681.545455	676.264336	682.948718	683.810023	675.528671	677.495571	677.714685	691.273893	680.788345	686.838228
588.000000	694.442890	712.152214	711.505361	710.165035	687.428671	688.874825	685.202797	697.303730	701.569697	700.806993	704.493007	713.948485	708.700466	692.463403	711.773893	685.282051	705.428904	700.312121	701.349417	708.810723	696.124009	701.034965	693.045921	701.929138	687.044289	692.121445	687.744289	700.889744	701.882984	703.596503
589.000000	715.836830	725.540793	726.667366	722.168998	704.631002	707.029138	705.097436	716.720047	719.829837	709.580653	714.904196	725.426573	728.458741	705.749184	728.860606	707.215385	716.400000	716.799767	720.234266	721.815851	713.125175	719.541725	708.059441	717.928671	703.615385	709.327040	703.484149	715.678322	714.539860	723.534033
590.000000	729.264802	741.738462	746.085315	729.524009	722.487879	727.169697	725.581119	734.098601	733.940559	723.863170	729.818182	730.662937	743.453380	717.162704	746.496503	728.430070	731.303730	734.167133	741.988578	735.575058	729.456876	736.195338	721.581818	738.003963	713.577622	728.478322	722.583217	732.118648	727.475291	736.717249
591.000000	734.220047	746.069231	760.012587	740.587179	742.769697	750.667832	747.722611	749.959674	744.159907	736.594172	751.004196	742.858974	769.268298	732.041725	768.646853	744.022145	752.056177	744.807226	762.655711	746.867832	739.535431	755.833566	740.094172	761.182751	725.700466	750.658974	742.255944	750.788578	747.947086	747.800466
592.000000	743.044056	753.180420	768.963170	755.417249	760.541725	767.344289	763.319814	765.388345	757.531935	754.304429	768.096037	759.748485	780.014685	746.218415	781.450350	763.096503	766.359907	753.311888	776.998368	757.162704	748.838462	767.719347	754.131702	777.100932	739.012121	767.037296	757.210023	770.984382	759.120513	756.073193
593.000000	761.403497	763.757576	780.634499	765.600233	773.191608	785.265501	784.820047	785.286014	766.632634	778.365268	783.601166	778.081119	796.310256	768.961305	793.560839	775.819347	780.511655	767.834965	796.274126	774.817249	776.544056	782.219814	767.498601	789.765268	756.017016	787.133566	772.816084	783.947086	769.215851	772.909091
594.000000	781.783450	784.812587	795.626340	780.199767	793.309790	794.591375	800.862471	796.707925	784.509324	792.833100	792.677622	796.582517	816.575291	790.183217	806.695804	785.959907	798.565501	783.316084	805.670396	793.566434	794.215385	796.444056	792.430536	809.975291	775.176457	804.177622	788.238462	805.350816	784.086480	792.027972
595.000000	799.013287	806.404196	811.424476	796.189510	808.233566	810.149883	809.140326	819.449417	793.804429	810.612354	808.163170	816.887413	827.930070	813.768298	818.884615	796.392075	820.384615	798.583916	807.322145	811.714685	810.429604	810.722145	812.263869	826.484382	796.509557	815.223543	803.620047	818.278089	812.213520	810.031469
596.000000	817.173427	830.075524	817.042424	807.836131	823.923776	823.504895	819.981585	836.075758	809.834266	829.506993	829.813520	833.529371	836.462238	829.284848	826.977855	816.290210	832.146620	810.108392	812.361305	831.342657	827.989744	814.240093	831.472960	833.928205	808.993240	820.348485	819.560839	824.684382	832.588811	834.002564
597.000000	825.679487	846.460606	822.970163	826.168531	843.100699	844.781818	838.937995	853.016550	824.239394	836.807692	842.285082	849.450583	838.786014	845.584382	840.228904	838.122145	849.807459	835.297436	819.032401	843.963403	842.494872	825.218415	841.114452	843.769697	813.078322	827.485781	837.393939	829.900233	837.706760	851.263403
598.000000	850.742657	867.924942	841.495338	839.359674	866.445921	848.525175	851.126107	866.903963	838.496970	843.364103	851.252448	866.622611	846.931235	866.598834	847.691608	856.290676	856.667832	856.825641	827.863403	855.724942	845.488578	834.686014	849.713986	849.482751	832.868765	838.804895	855.428205	842.103497	846.635897	870.776457
599.000000	866.760373	884.020280	853.852214	854.889510	882.731935	857.397203	872.039394	877.262471	865.205361	852.788811	868.210490	881.039161	854.907226	884.574126	859.660839	877.830303	866.253846	870.029604	840.700000	870.562937	854.470629	842.173660	866.294639	858.783450	855.105128	851.015851	874.085315	856.605828	856.508858	883.970862
600.000000	881.367133	911.553613	868.940093	871.594872	894.662471	868.827972	890.691608	885.312821	887.122378	865.067133	880.204662	899.304662	858.634033	894.823543	876.478089	904.391841	877.727506	879.727972	856.091841	882.349883	860.332401	857.062471	884.291608	871.448718	866.229371	858.420280	886.845221	865.252681	869.223776	884.409790
601.000000	882.514685	920.888811	883.050350	890.668765	904.533333	882.233100	900.737995	896.528671	905.983450	880.744056	894.366667	911.787179	880.957809	894.907925	895.192075	915.025874	892.672494	890.493240	880.065734	892.009790	871.750816	872.182284	901.033566	894.450117	877.272494	869.446154	901.830536	881.742890	887.193473	879.394406
602.000000	889.496270	921.844755	897.231469	909.526573	903.493706	892.475991	902.303263	914.670396	920.744522	894.665501	903.653613	921.727506	894.927506	897.528205	907.319114	932.162471	899.920047	901.784848	898.506527	899.146154	887.713520	892.248252	914.611655	918.970396	889.472727	878.502098	904.511888	894.934033	895.171795	883.999301
603.000000	899.223310	936.490443	918.091375	933.961538	906.521678	901.972727	915.113753	931.844755	931.807226	907.864336	912.413986	933.174359	915.772727	908.554079	912.984848	938.810956	902.937762	910.036830	912.330303	914.707459	906.709790	922.040793	922.381585	936.125641	918.036131	887.995804	905.979487	901.369930	906.778555	893.647552
604.000000	911.737995	951.631235	935.748485	952.639627	913.290676	912.901865	924.007925	945.934266	946.272261	923.450350	914.812587	943.473660	934.017949	917.029837	921.454312	945.533100	915.646387	919.454079	924.311189	919.755245	919.287879	943.974359	943.550117	953.315618	939.531235	903.815385	918.096037	924.339860	920.558741	904.648718
605.000000	927.603030	961.833333	948.856177	964.810023	918.927739	926.226340	925.989044	959.772028	952.136830	942.447552	927.620513	947.268298	944.712354	927.542890	933.748252	951.329371	933.851282	930.986713	931.017249	929.361538	938.431235	962.099301	953.542191	966.840326	951.888811	914.833800	933.048485	934.143357	929.478555	912.715385
606.000000	946.350583	971.067599	963.799767	968.506760	925.992774	939.664336	928.203730	955.859674	964.075291	953.898135	939.643590	951.536597	964.902098	925.520513	945.469697	961.105128	945.817949	942.171562	945.358741	937.311655	956.461305	971.842657	955.191142	972.917949	952.537529	926.068765	949.990676	939.654545	939.003963	929.399767
607.000000	962.310956	970.618182	981.079720	971.571562	940.790676	949.541026	944.622611	958.543357	978.189510	951.384149	945.289744	954.173660	974.768298	938.089977	953.310723	956.061072	955.434033	964.793473	955.286247	945.210956	969.437296	980.946620	950.890676	969.779021	954.383450	936.289277	965.180653	943.286480	950.072261	944.115851
608.000000	981.583217	968.263170	989.730070	971.899301	959.223776	950.016084	951.232401	964.130536	981.722145	960.045221	947.885082	963.648252	988.581818	950.237063	960.041492	961.497436	959.243124	976.339627	971.740326	951.211189	976.462937	986.450816	950.041259	965.737762	966.258508	949.477389	973.370862	947.677622	962.031935	963.985082
609.000000	999.865734	972.254312	1001.005361	970.345921	971.620746	963.887646	965.624476	976.964336	989.756410	965.009557	957.146387	980.600233	990.056410	967.555711	960.192308	971.184848	966.463403	983.232168	981.598601	964.167366	988.684382	980.199068	950.894172	959.475291	972.490443	956.177855	982.703963	958.341725	972.376923	974.235664
610.000000	1011.177622	984.047552	1005.527273	978.966667	983.801166	981.604429	974.534499	989.884848	988.909790	976.217249	966.190909	998.914918	988.922611	972.207925	961.760373	977.305828	977.999767	994.312354	993.385548	980.765268	992.239161	977.627739	963.614219	960.558741	974.921911	969.073660	991.771562	961.069930	983.034499	982.002797
611.000000	1012.204429	975.175291	1009.733566	984.744988	994.722611	1001.358974	977.464802	996.037762	983.045688	986.972028	981.916783	999.912821	1000.124009	978.303030	964.010490	973.690909	989.090676	1001.842191	1009.134732	997.515851	1004.728904	970.542657	976.896737	980.859907	977.073893	969.737529	998.425175	973.211655	991.371795	982.434033
612.000000	1009.411422	968.013520	1009.827040	996.677855	998.736364	1013.908159	978.127273	1010.811888	982.852448	991.931702	998.216084	1005.323543	1000.365734	983.803497	973.824242	980.439860	994.742191	1001.038228	1007.820746	1007.934499	1010.559441	973.033333	990.432168	1003.791608	978.313986	979.504895	997.689744	983.845455	996.056876	985.372727
613.000000	1009.444289	972.015851	1013.100466	1009.293706	998.614452	1025.458974	988.029371	1019.677389	986.982051	1005.684615	1007.644755	1012.919814	995.064802	994.746853	977.851748	984.927739	994.569697	996.084848	1000.613287	1004.447552	1014.133800	971.523077	990.589510	1018.653846	983.550117	986.791375	998.791375	989.567832	1000.049184	998.223077
614.000000	1001.082284	977.921911	1013.347786	1013.754312	1000.110256	1033.556177	997.270862	1034.600932	993.593939	1011.145221	1012.958508	1011.393240	987.852448	999.551049	990.017249	988.696037	995.550816	998.596270	1009.951748	1009.732168	1011.498135	974.660606	1006.348252	1024.341259	979.244755	991.358974	1001.546620	1005.486946	1011.274592	1006.947552
615.000000	1001.032168	992.813287	1007.586713	1014.847786	999.271562	1029.047319	1000.524476	1038.434732	998.841958	1009.577855	1017.848252	1007.837063	984.221911	1001.785315	1005.044755	989.994639	1004.113520	997.257809	1010.721911	1016.243357	1007.793007	983.107226	1007.075991	1033.559907	983.472960	1001.263403	1006.445688	1007.410956	1009.875524	1023.405361
616.000000	999.511189	1012.758508	1013.769464	1014.830536	997.669464	1023.658042	1004.233333	1027.793007	1006.040093	1006.293939	1012.968531	1008.424242	982.121678	989.016084	1014.255012	991.573893	1005.088345	1009.348252	1008.997436	1012.895338	998.771795	999.768531	1005.390210	1043.418415	984.066434	1007.843357	1012.296970	1002.141492	1022.048019	1032.631469
617.000000	1009.099767	1030.327506	1007.352681	1018.291608	1002.521445	1017.459207	1015.440093	1021.762005	1009.321678	1002.776690	1015.527040	1008.217016	980.089277	992.950816	1014.585315	989.965501	1007.829837	1010.116317	1008.596970	1014.581818	995.184149	1008.123776	1011.884848	1040.267133	985.145455	1007.328205	1011.212121	996.889744	1028.184149	1030.640326
618.000000	1017.620280	1037.472727	989.582517	1013.309557	1013.193473	1008.917249	1014.696037	1009.743124	1011.519347	1001.128671	1012.913287	1026.867599	988.710023	994.424942	1023.955478	996.809557	1004.329837	1010.552214	1009.541725	1012.484615	984.378322	1022.100000	1001.027739	1035.224709	987.909557	1008.770629	1006.765967	991.125175	1024.777855	1032.577389
619.000000	1030.608858	1039.736830	990.933100	1010.880886	1018.428205	1010.087179	1011.860373	1005.294172	1007.821911	994.792075	1010.244289	1041.031935	989.969231	1003.272960	1011.057110	1004.132634	1004.634033	1015.491142	1007.612587	1031.312354	977.962005	1022.015851	1005.522611	1012.109790	991.032634	1002.582517	1004.521212	988.381585	1011.163869	1017.886014
620.000000	1025.876923	1031.062471	980.189510	1011.632634	1022.990909	1007.272494	1005.093007	991.057110	993.832634	996.812354	1017.082984	1034.431935	1000.075991	1005.520047	999.358042	999.261538	1008.882284	1014.579254	1005.307925	1038.168298	970.409324	1023.373660	1012.121445	1001.959441	996.675291	1010.013520	1008.724009	985.551049	999.546154	1007.357343
621.000000	1021.179487	1013.647786	977.338695	1001.441492	1025.097436	1010.193473	1001.906294	974.559907	990.195338	996.606294	1019.027040	1018.872261	1008.406993	1004.866434	996.362937	991.352681	1020.403730	1009.396270	1001.699068	1035.192541	975.772960	1021.963636	1013.286946	1007.003030	993.448019	1000.777389	1017.723543	1000.082517	995.881119	992.342191
622.000000	1007.177156	997.357110	973.440793	999.220979	1014.384848	1007.976923	995.436364	962.478788	989.075291	991.367133	1016.575291	1012.561772	1013.078788	996.025641	991.707459	984.957110	1015.569697	996.334266	983.417016	1018.439627	979.758508	1011.183916	1004.811189	1003.875991	983.791142	1001.847319	1015.858042	995.803497	986.374359	983.425641
623.000000	997.974126	976.857343	978.363403	993.952914	1003.629138	1000.781119	984.227040	958.050117	992.779953	996.799301	1007.532867	996.403497	1006.450117	987.340793	983.639860	981.597902	1007.808625	986.556876	970.457809	1003.451748	986.102797	997.166434	984.247086	1007.134033	968.246853	1004.357809	1005.398368	985.287413	980.268765	980.950117
624.000000	990.285548	959.086713	986.709324	996.308625	995.909790	989.988112	973.512121	970.031002	994.834266	986.650350	1006.357576	970.004429	1000.095338	981.791841	986.341492	978.407925	995.972261	978.138695	965.521911	997.981352	980.397203	988.604895	976.896737	992.216084	955.153380	998.743823	989.224476	980.487879	972.572494	974.389044
625.000000	982.382984	954.806993	982.031935	996.537296	986.742657	972.965268	961.147086	970.795804	991.594639	982.478555	1002.990443	950.889510	989.652214	970.104429	992.687179	973.849417	989.571795	969.232634	959.160373	994.560606	980.495804	977.064103	967.220513	987.066667	952.502331	995.773193	977.040559	972.173193	963.692308	972.130769
626.000000	966.694406	952.487646	975.018648	996.052448	976.627739	957.722844	958.408625	968.223543	985.875058	965.450583	994.528671	941.069231	973.887179	961.601865	988.249417	973.751981	985.163170	966.293473	954.424476	990.600699	977.095571	966.181352	963.427972	992.927739	949.170862	987.157343	966.934266	978.289744	958.441725	965.494872
627.000000	964.781352	955.118182	963.894406	991.517249	964.401399	950.373893	956.342424	961.632867	976.890676	951.679021	997.634965	937.431935	962.849883	953.268531	985.440793	970.112821	978.498601	948.036131	952.261072	973.860140	972.825874	958.393240	962.262937	984.436131	944.507226	980.928671	953.365268	980.733333	947.025641	959.470629
628.000000	972.018415	950.516783	956.117949	976.162704	965.378555	944.025408	950.547786	951.755245	977.686946	935.486480	992.100932	940.531235	950.427506	951.238928	980.638695	962.423077	961.516783	946.452214	949.374825	964.471795	963.153613	952.717483	954.730536	970.857809	950.223310	972.583450	939.925408	977.991142	939.762238	954.288345
629.000000	977.363170	941.891142	951.854312	962.556876	954.083450	938.945688	948.159907	944.921911	964.946154	925.051282	971.015851	934.966900	931.945221	950.611655	963.076690	955.356876	955.814918	939.904895	944.397669	965.426107	967.256177	946.780420	954.436597	951.177156	952.459907	958.448718	934.331235	974.176457	926.681352	938.313054
630.000000	966.788578	929.584149	936.686946	944.334033	941.170163	930.341958	945.181119	938.680420	949.358275	910.920513	957.790909	913.218648	917.375524	946.632634	947.030070	942.503263	950.385315	938.267832	936.990210	947.529138	965.480653	941.083450	944.490210	941.016550	953.340793	953.473193	934.612587	972.955245	920.933333	937.834033
631.000000	950.350350	921.554079	925.775058	926.957343	934.665734	924.400699	949.489510	933.703497	939.437529	902.819814	941.355012	898.945455	908.133800	936.021678	933.257110	925.831235	947.321445	938.633800	930.936131	928.941492	967.470396	938.980886	932.852448	936.610023	945.344522	934.647786	939.814685	974.133333	918.006760	933.040559
632.000000	934.472960	915.010256	911.457809	919.883450	924.194872	914.488112	941.829138	914.163170	928.075291	890.665501	927.680186	904.033100	898.597902	917.965501	911.528671	913.827506	931.864336	937.461072	917.659207	916.232634	954.126807	925.693706	919.800233	923.997669	934.893939	920.026807	923.491841	950.251748	913.027506	927.705594
633.000000	918.184615	907.620280	899.007692	912.964103	915.093939	897.466200	928.924709	905.200932	919.276224	890.716317	915.650816	895.992075	888.201166	904.055711	893.606294	908.689044	918.728904	927.123776	903.109324	911.735897	937.301632	919.761072	905.207459	912.066667	921.606527	908.022145	910.800466	932.069930	900.378788	913.935664
634.000000	906.613986	891.235897	888.089977	904.575758	905.461305	886.371329	917.401166	893.598135	900.963170	896.031002	906.097436	891.445455	884.430769	897.606760	885.349650	898.166667	899.850583	919.973193	887.771795	903.499767	922.016084	908.256177	901.542191	889.788345	902.451282	892.096270	892.845455	916.060839	882.083916	899.972960
635.000000	889.648718	887.849650	875.237995	892.086014	895.436597	870.937995	900.814452	874.416317	885.735198	891.381585	895.395105	893.926573	883.565734	880.903730	881.969231	890.506993	883.583916	900.520746	881.778089	888.883683	910.160606	897.305594	898.550117	875.084382	890.638462	869.265035	878.152214	898.204429	872.520746	885.956177
636.000000	872.538228	884.940793	865.476923	877.864802	887.372261	861.225175	893.023077	864.632401	870.605594	875.552914	883.897902	891.114452	881.056177	875.037063	874.355711	877.526807	873.980186	885.805128	878.022378	879.517249	889.770163	882.367832	890.252681	868.305128	887.168065	860.326107	871.287413	890.106527	853.900000	877.975058
637.000000	866.434965	879.364336	861.589510	864.735664	875.260373	853.210490	876.045221	857.044056	855.164336	866.033566	874.001632	888.861772	877.720280	853.570862	871.956410	870.717016	854.885315	871.556643	870.774592	853.746387	875.753613	865.131235	879.023310	851.549650	874.572960	855.827506	856.030070	875.510956	847.672028	866.689044
638.000000	865.552214	877.168765	859.197203	849.608392	864.368998	857.040093	869.525641	844.897203	843.226573	852.568531	861.924709	878.534266	862.069464	843.629604	857.711189	860.229837	842.026107	859.994172	861.168298	844.873193	863.169464	842.786946	870.456876	837.302564	874.091841	852.187646	848.432867	855.256876	837.319347	853.065501
639.000000	858.514452	873.600466	853.786014	840.786247	851.672727	851.331002	863.380886	837.397902	836.112121	843.523543	845.717016	857.280886	851.348718	836.638928	839.182051	850.731235	833.425641	841.178555	847.833800	838.106527	864.063636	831.515152	844.855012	836.152914	863.484848	848.304895	847.408625	830.729604	827.720979	837.092541
640.000000	844.334732	861.529138	841.190676	831.985082	841.311655	848.632401	848.037296	836.574126	829.380886	830.906527	834.177156	827.220979	836.250583	824.686247	823.980186	844.325641	828.036830	832.569231	839.987646	825.019347	852.802797	827.602331	827.851282	836.522145	849.406527	848.449650	841.810023	814.439161	821.370163	834.382051
641.000000	831.579254	847.754312	826.910723	827.335897	833.383450	840.637529	849.804895	826.377855	817.906294	820.420280	825.569930	809.663170	828.151282	812.037063	809.918182	833.779953	818.897203	818.574359	833.552914	815.343823	845.211655	827.162704	817.008625	840.279487	833.574126	833.842424	839.793240	808.535198	813.516783	820.096737
642.000000	813.654545	831.900699	815.690676	831.822145	819.633566	826.816550	841.450583	814.744988	810.373660	815.772727	813.834732	807.167133	816.353613	800.246387	801.225874	828.195338	819.308159	809.493240	834.010023	815.141958	829.061305	827.474126	813.403497	829.618648	821.156177	828.041958	827.032168	803.528205	807.511422	818.709790
643.000000	799.131469	819.441725	806.189510	826.013753	810.252214	817.442424	834.699068	806.432168	797.888345	814.028438	806.405828	799.711888	808.648718	793.453147	797.892774	826.939394	812.868998	798.704429	826.755944	812.360839	817.033566	831.475058	816.536597	815.051049	813.610490	819.303730	815.807226	806.232168	796.706993	814.678322
644.000000	787.443124	802.360606	797.543823	807.175991	814.694872	808.468531	822.762937	794.986247	794.370629	823.266200	797.242657	804.317949	806.763636	802.805828	795.455012	818.835897	807.819580	794.602797	816.030303	804.209790	813.033100	827.293240	820.016317	801.890909	800.647786	806.471329	809.107226	806.468531	788.569930	811.086713
645.000000	788.388112	794.701632	796.206993	797.115618	816.245688	803.887646	803.767599	792.613986	795.543823	820.976690	786.313520	808.457809	800.610023	806.482517	795.506993	818.346853	806.080653	789.416084	812.273660	787.232867	806.676923	826.223077	818.058974	787.229371	800.153613	791.307925	810.057576	802.239627	785.378089	807.519347
646.000000	798.406061	797.088811	792.627506	794.625641	811.189977	801.902564	802.136131	795.371329	796.003263	816.063636	778.549650	813.492541	794.519814	815.829138	795.223776	812.965035	808.874359	792.907226	813.636597	787.719347	798.154545	817.620746	814.938228	783.576923	801.313287	787.671795	808.515385	805.381119	785.717483	796.947086
647.000000	806.389510	797.098368	795.730303	797.367133	804.783450	799.406061	800.010023	798.897902	796.002564	808.911422	777.958275	822.797669	796.093240	823.685781	812.458275	812.069930	800.723543	795.726107	806.022145	784.009324	801.395338	803.509557	815.052914	786.003030	807.938228	786.171329	809.141958	807.343823	785.692541	790.050816
648.000000	820.980186	802.472494	803.042191	807.496503	812.408858	807.574592	800.218415	807.719114	798.640326	814.074825	787.003263	827.759207	798.830070	836.125408	823.141026	813.965035	805.421445	802.551282	796.225408	791.728671	810.546154	796.217949	817.127506	789.743590	814.475991	795.860839	813.023776	804.893706	792.200466	789.503263
649.000000	825.510023	815.740559	818.843590	821.714685	825.277389	815.340559	809.327040	827.304196	814.561772	822.591142	800.470629	836.043124	809.325641	849.118881	838.520047	822.195571	818.440093	811.032634	790.740326	800.647552	817.009091	802.800932	824.009091	809.433800	820.667366	809.872960	820.821678	806.054079	804.610490	795.395804
650.000000	836.903963	827.556876	826.877156	842.323077	840.924009	826.880886	821.588811	838.110023	822.030303	830.561072	813.017716	841.912354	823.108625	857.705594	856.584149	831.363636	835.695571	830.297669	789.909557	808.594872	828.560839	812.679254	841.906993	839.639860	827.768998	828.629837	834.464802	819.161305	821.741958	807.246387
651.000000	850.150816	839.997669	839.931935	865.139161	850.642424	841.037995	849.588811	856.516783	831.917483	845.316783	833.687646	858.177389	853.459907	866.552448	877.121911	846.028671	847.543823	849.983683	808.811422	825.380420	850.758275	827.091608	864.947086	863.735664	839.860373	845.199534	849.077156	849.160373	843.618881	823.688578
652.000000	863.801166	868.352681	868.480886	895.009790	878.950816	861.613520	875.416317	876.847552	860.204662	869.555711	863.438228	880.502098	881.065967	891.629837	903.848485	868.332168	869.223776	876.646387	841.970163	858.178788	870.775524	853.473193	893.130536	884.031702	862.167133	873.224009	869.868531	878.842657	867.981352	853.205828
653.000000	884.658275	910.021445	899.007925	912.212587	919.339394	894.921212	904.364336	895.204895	885.201166	897.212587	897.909324	911.641725	919.631469	914.024709	924.847552	900.797436	892.067832	910.030070	874.592075	889.570396	899.289744	888.166434	923.910956	902.945221	884.524476	893.668298	889.586014	909.660140	896.600932	891.462704
654.000000	923.847086	962.027506	935.991142	942.618182	953.327506	936.736830	935.338228	925.218182	923.395804	928.072494	938.455944	943.362471	949.954312	944.076690	945.260839	931.815385	917.164103	940.203963	917.314685	923.072261	938.938462	933.890210	952.233333	924.029138	907.838228	923.809790	926.277622	943.744522	930.986713	933.346387
655.000000	971.581818	1016.277622	979.606061	977.778788	998.382517	990.298834	975.934266	965.208625	976.474825	966.294639	977.380420	977.928438	985.325641	973.313986	969.286946	972.678555	949.394172	977.389277	971.164802	964.696737	967.397436	981.855478	988.369464	954.685548	947.949417	968.963869	969.458741	986.486946	977.134732	978.779487
656.000000	1026.386014	1087.852681	1031.265501	1022.791608	1043.700932	1042.747319	1032.240559	1015.982984	1034.668765	1002.813986	1024.975991	1021.058741	1029.637529	1022.345455	999.774825	1016.541958	997.103497	1013.697436	1035.664569	1012.904895	1002.941026	1027.949184	1031.050583	992.700699	1000.080420	1020.430769	1021.787646	1036.075291	1026.595338	1029.187179
657.000000	1079.033566	1138.967366	1088.375991	1070.527506	1106.980886	1096.315152	1089.969697	1070.406760	1098.709324	1060.671562	1072.160606	1068.810256	1082.178788	1073.193240	1055.811422	1068.949883	1046.597669	1060.403263	1091.610023	1057.197203	1054.573193	1084.385315	1078.279487	1051.583217	1053.398601	1067.403963	1068.737063	1089.230769	1074.884848	1094.063403
658.000000	1128.370862	1186.940093	1149.880420	1132.423077	1165.304196	1149.139627	1150.812121	1139.790676	1155.675291	1121.791608	1129.557809	1135.288811	1138.556876	1129.709091	1102.588345	1132.782984	1123.988112	1112.081352	1149.034732	1115.996270	1116.516317	1151.440093	1136.551282	1104.771096	1110.819347	1131.489977	1117.008858	1135.160839	1132.019814	1157.013753
659.000000	1183.730536	1229.523543	1205.462005	1196.528904	1225.006993	1199.361072	1219.212821	1205.265501	1213.227739	1185.652214	1192.953613	1202.291841	1198.676923	1190.139627	1173.910956	1197.912821	1205.495338	1170.742191	1208.905128	1178.644056	1169.849650	1218.021212	1200.289977	1178.042657	1184.406993	1191.094872	1175.995338	1194.057343	1190.976457	1230.406993
660.000000	1246.620047	1285.055944	1251.113287	1268.641026	1286.800466	1243.369697	1277.041958	1281.791841	1269.466200	1251.621212	1259.027972	1273.468065	1267.652681	1247.601399	1248.063869	1265.624709	1289.586713	1237.356177	1267.383683	1252.289977	1236.961305	1276.885315	1256.116550	1248.294639	1249.660606	1259.861538	1236.373893	1255.414918	1243.780420	1286.454079
661.000000	1317.242424	1337.158508	1309.426573	1333.741259	1343.606061	1294.137529	1342.615385	1348.097902	1325.272727	1322.071795	1334.193473	1335.372960	1348.512821	1309.289044	1325.447552	1337.494172	1362.561772	1304.284382	1337.673660	1325.731935	1307.068998	1341.303030	1310.967366	1307.995338	1316.645688	1316.166434	1297.053613	1321.179487	1304.051748	1337.417249
662.000000	1388.797203	1394.930070	1379.533800	1395.794872	1415.664336	1356.790210	1410.559441	1401.923077	1392.510490	1386.703963	1401.864802	1406.268065	1425.668998	1373.606061	1397.209790	1406.363636	1443.386946	1383.116550	1402.708625	1397.741259	1372.664336	1400.023310	1368.186480	1380.899767	1392.589744	1368.960373	1361.834499	1381.983683	1345.405594	1385.235431
663.000000	1455.668998	1462.326340	1449.692308	1458.771562	1474.139860	1420.696970	1459.783217	1455.400932	1449.477855	1459.797203	1462.065268	1462.703963	1492.759907	1426.839161	1460.717949	1468.421911	1511.048951	1450.685315	1463.627040	1467.128205	1439.955711	1446.256410	1429.023310	1433.960373	1452.839161	1410.165501	1426.051282	1441.825175	1399.580420	1435.990676
664.000000	1536.939394	1540.811189	1518.881119	1527.093240	1516.354312	1481.389277	1509.937063	1499.475524	1509.797203	1512.347319	1529.692308	1508.417249	1533.216783	1479.503497	1520.184149	1519.696970	1564.153846	1498.897436	1514.487179	1525.405594	1503.079254	1500.988345	1470.930070	1485.706294	1506.435897	1468.298368	1490.916084	1501.890443	1469.643357	1482.682984
665.000000	1593.240093	1595.209790	1578.205128	1570.708625	1578.822844	1545.095571	1564.165501	1540.223776	1565.480186	1559.496503	1589.275058	1546.540793	1587.277389	1523.354312	1567.771562	1562.293706	1598.592075	1539.547786	1553.256410	1575.088578	1537.391608	1545.463869	1515.093240	1539.696970	1562.857809	1537.123543	1543.822844	1550.158508	1535.459207	1523.843823
666.000000	1634.319347	1635.184149	1634.090909	1606.675991	1628.349650	1605.983683	1597.417249	1585.174825	1612.270396	1600.839161	1631.351981	1587.515152	1614.433566	1577.391608	1606.694639	1600.403263	1625.701632	1576.242424	1579.773893	1600.435897	1575.923077	1584.860140	1555.636364	1572.967366	1594.379953	1582.009324	1589.806527	1588.023310	1588.207459	1564.167832
667.000000	1675.666667	1650.932401	1673.307692	1622.333333	1676.983683	1644.475524	1618.708625	1610.811189	1640.006993	1640.757576	1645.673660	1615.825175	1631.214452	1616.988345	1644.547786	1634.177156	1633.324009	1610.601399	1597.293706	1607.053613	1604.491841	1608.622378	1582.293706	1603.916084	1611.580420	1615.547786	1611.794872	1613.671329	1627.958042	1606.694639
668.000000	1682.296037	1664.421911	1686.356643	1645.102564	1684.391608	1670.585082	1637.624709	1627.193473	1650.240093	1649.568765	1665.025641	1647.913753	1646.407925	1651.543124	1647.389277	1661.699301	1640.675991	1630.505828	1608.351981	1614.745921	1618.102564	1627.594406	1615.188811	1617.088578	1618.536131	1639.662005	1636.958042	1618.913753	1656.790210	1627.135198
669.000000	1688.058275	1657.249417	1676.538462	1658.869464	1683.356643	1680.331002	1640.158508	1626.692308	1656.170163	1661.351981	1667.827506	1652.037296	1638.524476	1669.951049	1658.622378	1676.135198	1636.655012	1639.212121	1607.212121	1602.965035	1620.983683	1629.351981	1622.820513	1624.414918	1614.468531	1647.804196	1639.685315	1626.773893	1671.328671	1646.650350
670.000000	1674.277389	1657.722611	1660.587413	1663.962704	1667.032634	1668.857809	1636.620047	1626.000000	1654.174825	1639.738928	1658.606061	1646.212121	1618.389277	1663.193473	1649.510490	1672.487179	1616.454545	1632.934732	1590.473193	1587.554779	1615.326340	1616.083916	1611.650350	1623.389277	1600.361305	1644.825175	1631.834499	1617.181818	1651.025641	1652.006993
671.000000	1654.995338	1623.664336	1636.988345	1651.545455	1636.578089	1642.282051	1625.890443	1599.093240	1631.340326	1621.072261	1619.871795	1624.724942	1605.671329	1652.762238	1620.759907	1652.195804	1590.382284	1629.195804	1572.965035	1565.622378	1604.745921	1600.484848	1596.932401	1602.696970	1574.505828	1612.044289	1604.552448	1606.130536	1617.449883	1626.841492
672.000000	1618.214452	1583.834499	1596.256410	1625.198135	1615.083916	1606.386946	1603.519814	1562.289044	1605.902098	1593.512821	1566.079254	1602.284382	1574.249417	1619.855478	1576.417249	1616.310023	1569.088578	1610.307692	1538.193473	1526.027972	1589.829837	1559.461538	1569.354312	1576.254079	1542.501166	1564.792541	1558.247086	1578.132867	1571.032634	1590.680653
673.000000	1571.207459	1538.932401	1558.624709	1595.706294	1576.111888	1566.967366	1555.948718	1526.538462	1557.694639	1556.815851	1521.170163	1550.986014	1529.582751	1573.787879	1531.571096	1560.696970	1538.776224	1553.501166	1492.076923	1500.188811	1562.121212	1515.344988	1532.960373	1524.787879	1492.461538	1507.181818	1512.769231	1539.773893	1526.181818	1538.037296
674.000000	1517.109557	1489.599068	1501.480186	1548.452214	1521.510490	1506.692308	1506.797203	1469.167832	1500.757576	1494.482517	1475.501166	1489.235431	1471.818182	1514.179487	1477.303030	1495.596737	1495.538462	1500.918415	1434.069930	1460.435897	1516.501166	1471.839161	1473.209790	1465.655012	1444.554779	1456.946387	1467.967366	1491.568765	1480.930070	1476.613054
675.000000	1447.034965	1418.792541	1433.720280	1472.372960	1457.867133	1439.729604	1453.855478	1414.862005	1423.906760	1433.717949	1415.284382	1420.002331	1416.599068	1427.545455	1419.596737	1406.312354	1428.609324	1430.491841	1362.538462	1417.184149	1453.745921	1413.191142	1406.813520	1404.890443	1386.890443	1392.466200	1406.662005	1426.199534	1418.925408	1410.325408
676.000000	1373.710490	1332.114219	1371.507226	1395.808858	1383.665268	1373.786014	1378.606993	1351.855944	1349.885781	1367.728205	1348.558042	1349.002797	1337.685781	1347.328671	1353.946387	1316.495571	1350.449883	1350.998135	1293.686247	1356.780886	1387.917483	1354.793939	1328.724942	1331.706294	1315.038695	1319.209324	1346.331002	1350.387179	1341.445688	1333.172261
677.000000	1306.535897	1263.491375	1297.128438	1300.164569	1305.470163	1284.590210	1302.167366	1275.192774	1259.626340	1293.216317	1284.523543	1270.618415	1263.870862	1265.271329	1286.615385	1227.105594	1264.556177	1273.346620	1228.326807	1282.067133	1296.901166	1274.322378	1244.149883	1261.501166	1247.765734	1242.125641	1277.482751	1266.455012	1267.062005	1254.610256
678.000000	1219.345921	1190.035897	1212.512587	1209.104895	1205.577622	1199.906527	1227.439161	1188.719347	1193.383217	1206.009324	1219.915152	1191.177622	1189.538695	1184.796270	1195.535897	1154.655944	1187.459907	1188.946387	1162.749417	1197.357343	1196.565734	1191.255944	1171.835664	1193.464802	1170.181585	1161.546387	1207.910256	1181.135897	1194.043823	1171.754545
679.000000	1134.720047	1119.704662	1135.654312	1122.596737	1112.110256	1121.013986	1142.729371	1104.356410	1125.505128	1125.777855	1144.685548	1104.449883	1099.337063	1099.550350	1111.623077	1082.632168	1108.402797	1108.664103	1089.957110	1105.813986	1105.444988	1114.076923	1089.127739	1120.075524	1092.925641	1086.944988	1130.603963	1101.168531	1122.818415	1104.247552
680.000000	1052.475291	1051.729371	1056.845455	1036.970862	1026.003963	1040.363403	1064.808625	1024.968065	1056.282984	1036.059674	1057.232634	1024.139627	1018.776923	1012.401399	1023.264103	1009.047552	1018.120979	1033.105594	1012.095804	1017.545455	1016.748951	1033.196737	1004.630769	1052.470163	1023.144988	1015.874825	1055.154079	1026.795571	1039.632867	1043.155478
681.000000	978.876923	974.556177	969.005828	961.038228	946.063869	961.045221	984.132634	958.489044	984.304429	966.673193	958.600466	952.881818	947.535198	936.913287	938.844522	942.098368	947.968765	962.751049	941.597669	939.491841	940.392541	958.238462	934.266667	967.784382	949.595571	944.942657	967.044056	955.641958	963.463636	963.161538
682.000000	908.909790	909.153846	886.279720	893.154312	889.820047	889.679953	909.493007	887.596970	907.569464	896.641958	880.014452	889.046387	869.659674	869.303497	865.390676	880.503730	878.559674	882.262937	868.091841	858.677622	878.786713	890.187879	865.903730	887.159441	876.196737	879.156876	881.701399	880.987879	891.707459	897.996037
683.000000	836.372494	841.916084	819.569697	831.459674	829.087179	833.883916	835.532168	834.960606	836.540559	830.458508	810.141026	821.187179	811.515152	804.876224	805.962005	819.502331	817.202331	808.623310	807.623543	796.903263	815.833566	830.744289	807.604196	809.325175	807.758508	820.295105	814.041492	818.637995	816.254312	832.282051
684.000000	771.096737	778.046853	757.935431	772.507925	769.686014	777.802098	769.740793	780.030303	774.899767	769.915618	742.755012	757.050816	753.550350	751.197203	750.553147	765.252214	754.499068	762.375058	752.006993	742.339161	750.851515	772.212821	753.031002	739.059907	748.825641	767.697902	761.155012	760.488345	754.191142	772.919814
685.000000	715.708159	717.752914	699.827972	717.278322	714.083217	722.544755	714.529138	731.141725	715.233333	722.786946	682.401865	700.896037	702.499068	699.290443	703.208858	701.457110	696.614685	704.226573	697.453380	700.712121	697.687879	717.023077	699.168765	683.435431	691.690443	711.364569	708.617016	703.284848	694.983450	720.532168
686.000000	668.610256	665.517249	653.824709	674.475058	665.361305	677.051981	665.259207	678.735198	666.155478	671.390210	641.288345	648.427739	652.730303	654.750350	653.068998	651.823776	638.751748	650.856876	656.897203	662.408392	653.696737	673.270862	646.472960	634.265734	649.601399	662.671562	661.289744	649.005361	639.593240	666.663869
687.000000	617.255711	622.854545	607.287879	618.795105	621.108625	625.469231	620.571562	633.053846	616.537296	626.947319	604.932634	604.114452	607.662937	613.926107	611.600699	605.644056	591.303730	609.227040	618.282751	620.613753	604.499767	626.231469	599.738695	598.234965	607.940093	611.952681	609.631935	601.859907	597.988345	620.612354
688.000000	578.328205	575.639860	567.207692	572.609091	574.784382	578.128438	583.192075	582.982517	587.689977	580.771562	564.394872	563.901166	564.900932	577.869464	564.459907	572.988578	555.969930	570.353380	586.643124	576.787646	560.225641	584.237296	569.459907	564.282051	567.638695	573.208858	567.631702	564.977156	559.265967	582.190909
689.000000	544.582051	541.838695	530.035897	531.197203	537.155245	543.631002	544.448019	540.170629	547.758741	538.486247	530.068998	530.450583	526.889510	536.240559	524.223310	540.304196	526.712587	541.406527	549.807459	545.993706	524.595338	551.928205	536.155944	526.894639	532.728438	535.270163	533.100000	537.667832	529.819347	548.893007
690.000000	515.709557	507.214918	492.481585	492.836597	506.190676	509.159674	512.743357	503.237762	511.576690	504.658974	495.449650	501.118881	497.733566	501.353613	488.241725	508.382984	500.726340	507.980653	514.333566	513.623310	494.846853	511.259907	502.290210	495.295105	504.572727	501.193473	496.969464	508.657809	498.190443	510.308625
691.000000	493.916783	480.012354	463.081585	469.465268	475.277156	474.775058	483.930536	474.388345	476.510490	469.934732	470.075758	474.359441	469.068998	470.271562	461.140326	477.782051	481.669697	479.054079	481.700000	489.284848	468.410956	474.478089	477.533100	468.054312	480.016550	467.289510	464.352914	480.482751	471.358508	479.488345
692.000000	468.147086	458.207925	440.751748	449.617249	448.172727	442.891375	456.544988	445.059674	440.460839	440.598135	443.496037	452.460373	442.084615	447.980420	437.317249	448.609557	455.459674	450.338695	452.704662	461.601166	447.086247	445.043357	452.779021	445.110256	454.004662	439.044289	439.000466	454.336597	440.203497	453.875991
693.000000	440.340559	437.983916	420.413986	429.875291	421.529837	416.828438	432.728438	420.928438	415.155478	418.223776	417.186713	426.923543	423.945455	423.598368	417.986713	420.117483	432.914452	426.830303	430.593706	438.172028	422.226573	414.709324	435.484615	423.888811	433.284149	413.690676	423.320979	431.257110	415.027040	428.777622
694.000000	421.344522	415.749417	407.631235	408.990909	401.018182	398.086480	410.435198	397.925874	393.760606	395.716084	398.034965	404.482051	405.981818	409.656643	399.137762	397.262238	412.364802	406.908858	406.154545	417.992075	399.848485	393.421678	418.385315	405.648485	409.344056	393.446620	409.270396	405.607459	394.911422	405.688578
695.000000	402.250117	398.279487	393.875524	394.940093	385.528205	380.791375	391.516317	378.758042	375.098135	379.900000	379.493706	383.537529	393.044289	392.549184	382.851282	375.811888	395.162704	385.976457	380.460606	402.203030	381.962471	376.625641	399.982751	385.189510	390.825408	376.662937	395.616317	384.186946	379.547319	384.689744
696.000000	386.478555	388.339860	380.851049	378.735198	371.691608	366.706760	375.580653	364.123077	359.334033	368.672261	362.686946	365.603030	378.672261	373.847086	368.594639	364.854545	374.475058	369.104895	360.444988	382.367366	370.935897	361.078788	380.329138	363.525874	374.573660	356.592774	378.417249	367.523543	366.960839	367.463636
697.000000	362.328904	371.720047	366.390210	363.492541	361.126107	352.648718	360.194172	357.215851	341.380653	358.775291	346.329138	349.991375	359.349184	356.906993	358.170396	351.943590	351.161772	353.962005	344.970629	360.045455	361.158275	349.873427	362.281352	348.878322	358.385315	347.498368	360.304662	353.633100	352.911655	351.556410
698.000000	348.469930	352.606061	355.606294	352.318648	344.856177	341.913986	350.896970	342.364336	331.436830	350.021212	332.186946	337.850117	340.628205	342.701166	346.718881	339.443590	335.057343	339.838695	329.563170	342.585548	352.532867	339.324476	352.892774	335.642657	347.383916	342.872960	349.215618	343.721678	338.737296	338.584848
699.000000	338.057809	334.876457	342.712354	337.408392	332.531235	333.670396	340.070396	328.479021	319.905361	334.493939	325.345455	326.229837	325.757343	329.768298	334.081352	332.310956	324.251748	328.603963	318.205828	327.718648	340.627739	330.175991	337.033100	322.069930	337.249417	335.301865	338.179021	335.820513	325.089044	326.344755
700.000000	330.641958	320.601632	332.125175	322.375058	320.786480	321.160606	330.230769	319.744056	313.523776	325.154079	320.704429	315.583916	316.584848	322.027972	323.685781	324.844289	316.920979	314.660373	312.684615	312.507692	330.673427	319.820513	319.860606	312.437529	326.363869	324.792308	321.017483	322.783683	313.651282	313.581585
701.000000	321.813986	307.544522	323.490676	311.843823	307.904662	309.547786	318.851515	311.585781	308.490909	314.523310	315.911422	309.926340	307.766900	315.907459	314.861538	315.214219	307.177389	309.939627	306.924242	304.000466	317.104662	311.934499	308.086247	303.049184	317.575991	314.074825	306.915152	314.261772	304.773427	304.775058
702.000000	312.072727	300.268531	314.500233	301.434499	296.370396	299.269464	310.255245	299.448951	303.160839	304.963170	306.696737	300.696970	300.592075	307.610023	306.340559	304.716084	293.356410	301.812821	302.580653	294.496270	306.125408	301.937296	300.500932	297.625408	306.740093	309.054312	295.537529	300.711655	294.780186	294.870396
703.000000	302.715152	297.740559	304.103030	291.511655	287.210723	288.985315	302.505361	290.379254	297.272028	293.701166	302.412821	288.675758	294.222378	295.936131	297.091375	293.639627	286.201865	294.634965	296.602564	291.281119	296.237063	294.065501	298.345455	288.209324	300.611655	300.218648	288.963869	291.545688	285.404895	290.094639
704.000000	296.939627	292.900699	294.865967	279.901865	278.538228	280.893240	290.879254	283.251981	295.188345	285.287179	295.959441	279.517949	286.835431	285.338228	286.894406	284.311888	280.689277	285.677389	291.179021	287.842657	283.349184	288.574126	289.651282	283.280653	285.570163	287.870396	280.689744	282.225175	278.964802	284.017483
705.000000	287.875291	285.496970	283.631469	278.261072	272.306760	272.086014	280.393939	276.685315	287.645921	275.438928	283.379953	273.784615	280.468065	271.614452	277.403497	274.210956	278.311888	279.683217	279.872261	285.204662	271.833333	281.576457	280.522844	277.689044	273.534965	276.354079	274.580653	279.632401	270.869930	276.944056
706.000000	279.344988	279.535198	270.987413	270.844755	267.404662	262.905128	271.098601	269.778788	278.219114	269.452214	273.636597	269.110256	271.514452	262.790676	268.124476	264.746154	274.913520	271.988345	274.456643	278.328438	267.926107	273.658974	272.876457	273.769930	265.534732	261.641725	267.303497	274.541725	260.026573	267.305128
707.000000	269.534266	272.843590	260.308392	267.084149	265.610723	256.865035	260.957576	264.412821	268.732867	265.555711	264.527739	261.078322	261.326807	257.169464	259.758508	257.067133	267.707925	264.949417	263.574825	273.573893	264.436364	265.980653	266.903963	269.848019	260.584382	255.387413	261.207692	265.517949	253.619814	259.734033
708.000000	259.309557	261.179953	252.571795	259.684848	260.133333	253.438462	253.853147	258.379254	261.488112	263.356643	255.611655	253.444289	254.600233	254.897436	253.612821	249.328671	262.488345	258.572261	251.479254	272.245221	261.155711	257.892541	259.348252	265.212354	258.086713	249.095571	258.127040	256.457343	246.402797	253.882517
709.000000	252.861305	251.649417	245.313753	251.702797	256.595105	248.674592	246.071329	250.434499	253.868298	254.431702	250.263636	249.317483	250.218881	249.252914	244.128904	250.420280	255.111888	253.042191	245.808392	264.557576	255.428438	251.086014	252.830769	256.265501	254.024009	243.966434	254.594172	245.550117	240.606993	250.531002
710.000000	246.639860	243.264103	240.821212	244.262471	250.107925	242.359674	243.524009	243.597203	248.995338	248.867133	241.810956	245.378788	247.272494	246.598135	241.656876	246.219814	248.564336	241.801632	240.967832	257.612121	247.512121	242.594872	247.627739	247.826573	249.711189	238.693706	248.972494	236.448252	237.071562	246.976224
711.000000	239.929138	236.373660	231.110256	236.120047	244.583450	235.250117	241.360140	235.246620	244.504429	244.289044	235.514685	242.520979	246.473893	241.790909	237.774592	238.614685	241.176457	236.230303	231.117716	247.942191	239.505361	239.982051	244.897436	242.261772	246.109557	234.840559	245.512121	228.979487	229.843124	240.565268
712.000000	234.137995	231.779021	226.844056	231.201399	237.855245	234.308625	237.631702	226.186946	236.062471	238.671096	232.228438	234.539161	242.131469	236.263869	237.879720	233.800000	231.353380	229.197436	226.292541	235.452214	233.471329	231.946620	242.101166	236.455012	239.399068	236.141026	239.206527	220.571795	223.393706	238.598601
713.000000	226.955478	231.028205	223.125641	229.626107	231.518182	231.789744	234.731002	222.375058	229.386014	229.330303	227.703963	224.447552	239.332168	230.627040	234.348718	229.218881	225.016317	222.104895	221.967133	227.225641	225.704196	226.582051	233.254079	230.538928	234.482751	234.697902	234.021445	216.597436	220.402564	235.683916
714.000000	222.820746	226.643124	218.047552	225.671562	226.300000	228.151049	227.272960	219.224476	224.084382	219.701865	223.266200	218.192774	229.821445	223.997436	226.105361	223.932867	220.445688	215.780653	216.128671	219.803030	218.096037	219.833800	219.716317	225.677389	226.303730	228.993240	228.172727	216.117016	219.862937	233.204895
715.000000	219.517483	223.492308	215.531469	223.941259	221.332867	218.984848	219.819580	212.705128	214.052681	209.172727	216.320280	214.112587	219.503730	215.393706	217.933333	216.662238	215.618881	210.642890	212.283683	211.807459	209.193939	212.107925	209.953380	221.544289	217.155944	223.372028	223.707459	217.268765	215.750583	231.951282
716.000000	215.985082	219.968065	208.819114	217.377156	218.203263	210.845921	209.987646	207.468765	208.388578	204.577156	213.278089	207.427739	208.431235	211.952681	211.334499	206.569464	212.605828	201.317949	212.777855	200.207459	204.600699	204.285548	201.941259	216.186014	211.172261	211.902797	215.502098	215.708625	212.217483	224.113520
717.000000	213.905594	217.518648	204.734965	209.781119	213.070396	207.195105	205.252914	203.262005	203.875291	200.583683	207.937529	200.974825	202.997203	208.853380	207.244522	203.541958	205.542657	194.821911	207.971562	194.005594	199.479487	201.635664	196.250583	207.949650	202.436597	206.440093	204.623077	209.062005	208.844289	219.108159
718.000000	208.473893	209.288811	202.972960	204.784149	205.720979	203.078555	204.906760	201.677389	198.105828	193.915385	201.592774	197.817016	198.876224	205.368998	198.278089	198.510723	201.433566	187.947786	202.816317	186.794172	196.399767	201.325641	188.979720	197.732168	197.780653	200.072028	196.609091	205.409790	206.630070	211.044289
719.000000	202.005594	202.318648	205.243357	196.647086	201.635664	195.896270	198.557343	197.337063	194.757576	187.431235	192.262704	191.551981	197.148951	197.421445	191.584615	195.409091	193.397902	185.673427	195.822145	181.838228	193.319114	198.499068	185.511888	191.269231	192.361305	191.001166	191.447786	201.798368	199.615618	204.286014
720.000000	195.390443	198.856643	200.433800	189.610956	192.042657	186.591375	196.488578	190.454312	189.821911	182.130536	182.755944	184.131702	192.790909	190.793007	186.842191	187.516550	187.183683	181.214685	190.411422	178.775991	188.467599	193.651748	186.192308	187.524942	186.180886	182.118415	188.061772	199.180420	191.092308	196.076923
721.000000	189.840793	194.334033	193.022378	181.361072	184.941725	179.198368	190.312121	182.273660	184.446154	179.455944	175.379487	178.531002	190.945455	180.408159	183.149184	180.089744	185.989977	179.876457	184.179953	176.842890	181.786480	190.033566	186.643124	186.573660	183.920513	172.544755	182.760140	191.669464	179.105594	187.861772
722.000000	185.191841	185.939627	187.706294	175.522844	181.268531	177.497436	184.822611	175.592075	177.616317	175.013054	170.049417	175.154079	186.506294	173.296970	181.676690	175.881352	179.196270	179.947319	182.351748	174.427972	177.853380	182.040559	186.348951	181.142424	180.327972	170.547319	176.113520	182.469231	170.249417	183.669231
723.000000	177.803263	181.762238	183.127506	173.279021	174.146387	174.885315	179.449184	169.268998	174.150816	168.526807	163.227506	171.943823	181.808625	169.654779	177.154545	170.127972	175.695804	177.489044	177.435664	175.627273	175.152681	174.135198	183.556876	177.717483	179.213054	167.508625	173.268765	176.025641	165.445221	177.874825
724.000000	173.297436	175.978322	176.096737	169.466667	172.454079	168.857576	175.359674	163.598601	169.480653	163.253380	157.717249	170.570163	173.841492	162.731702	166.444988	163.981818	168.721911	171.793939	168.762238	173.553380	173.800699	165.526573	175.201632	170.702797	179.441492	164.685082	172.033566	171.499068	160.707226	173.260140
725.000000	169.378555	173.195105	168.898368	164.281119	165.930536	166.099767	167.397902	158.009324	162.233566	160.691375	153.700932	170.133566	164.830303	158.139394	161.418648	158.941958	163.637529	165.479254	167.456876	167.937529	166.904196	158.715385	171.392541	164.102797	175.587646	163.351981	171.371562	166.114685	154.552681	168.856643
726.000000	161.898601	169.507226	157.500932	156.894639	162.400932	162.790909	160.292308	154.665501	155.546620	156.893240	151.360606	167.303030	154.306061	154.102564	159.316317	154.381352	159.325874	159.884149	166.150816	163.948718	162.630769	154.377622	164.973193	158.222378	171.015152	157.782751	168.776457	161.211422	150.327506	161.755944
727.000000	155.024242	165.936830	148.949184	149.484615	154.710256	162.860373	159.966434	153.198601	150.370629	152.417483	151.233566	162.743590	149.721911	148.139627	155.423077	154.941492	153.673660	150.490443	161.950583	162.166434	157.313753	152.404196	159.322145	153.488811	164.913520	153.786480	161.762471	154.414685	148.291142	154.222145
728.000000	145.783217	157.877156	142.883450	145.022611	146.885548	156.255245	160.899068	151.110723	145.709324	145.680186	144.954545	156.553147	148.401865	144.219347	147.182751	151.286247	152.106993	145.627040	155.535198	153.918182	154.278555	149.223776	151.391841	147.379720	155.368998	149.078089	157.458508	150.457110	146.367366	146.301865
729.000000	137.116317	148.381352	140.759207	140.257576	141.534732	148.485548	152.909557	148.399068	140.857576	141.878089	139.393473	146.069697	144.454779	141.576224	143.969930	147.081818	144.950583	142.931002	149.048485	148.146620	150.003263	144.587646	145.759674	146.816550	148.634033	143.665268	153.444289	149.894406	140.856643	140.664336
730.000000	132.811189	143.113986	132.252681	136.958275	136.283217	139.015851	147.860140	140.369697	133.634033	137.702331	134.489977	141.183683	138.788811	137.199301	141.183683	142.156410	142.084848	138.900000	142.079487	144.576457	143.651049	136.073660	141.478089	141.534499	140.049417	140.949417	151.568298	146.103730	135.858042	134.941492
731.000000	130.520653	135.184149	129.368298	134.945455	130.931002	128.965734	138.454545	133.299534	129.739161	134.388112	132.204662	136.243590	137.517716	132.934266	139.527273	137.878322	137.536597	134.784149	134.959674	144.117716	135.559441	131.865035	136.337762	135.931235	135.473193	136.018415	144.676923	140.789044	130.383450	131.299068
732.000000	126.932191	125.482751	126.844522	131.900093	129.249883	123.000932	133.265501	129.880886	127.943869	129.607692	129.254079	132.014918	134.629184	128.725641	135.477855	131.171562	131.869930	131.628671	127.457110	139.917622	130.651515	128.188112	132.820746	130.797902	129.239860	134.259207	140.413613	132.951049	127.209231	126.885315
733.000000	121.660420	119.003497	125.468531	130.416177	123.662704	119.978788	126.817296	124.040093	122.455058	124.421445	125.638462	128.749650	128.701795	125.635664	128.528042	125.367366	126.962354	126.776923	123.414685	135.241585	126.526573	121.684149	128.038788	129.185268	125.108625	130.920280	134.939720	127.906061	121.212238	123.260932
734.000000	118.272727	113.404196	126.500699	127.422471	121.836364	115.200000	122.636527	118.911422	118.758695	120.501166	119.056294	125.762238	122.705175	119.321865	118.910909	118.200233	118.532634	121.193473	117.824942	125.312867	122.273147	116.924709	120.058578	123.949114	120.551515	131.198275	129.927599	124.358928	115.465431	119.193869
735.000000	113.502587	111.056737	126.748392	122.573986	117.941352	115.881119	115.086830	117.192774	113.815361	115.843823	114.851702	122.883869	115.175035	115.178998	116.210559	115.541259	113.364872	118.178298	118.842517	115.698578	115.770536	113.918881	113.943776	115.475781	118.668065	128.568695	123.024802	117.647273	107.454802	114.457156
736.000000	108.343007	110.995035	123.290443	115.501072	115.654779	112.659930	107.972611	115.311422	104.915711	111.549650	110.126830	119.667995	108.601911	109.498345	112.753077	113.697063	105.413823	111.840862	117.346923	110.801632	110.660583	115.858089	109.537086	110.035664	116.031096	121.648671	117.377716	111.380000	102.093380	110.046317
737.000000	102.943217	107.844499	118.139744	110.241865	113.160606	110.401375	103.704033	114.197249	103.506317	109.151049	108.002681	112.780280	104.343030	104.578159	107.493916	112.058368	101.483893	105.697716	112.879394	103.865291	105.738462	113.308065	108.306946	106.732354	112.372494	112.851166	111.263823	105.346294	100.999650	105.484942
738.000000	98.914685	103.600093	112.712541	103.327925	107.438974	104.560280	101.247669	112.818531	100.436946	105.137413	100.453823	107.361445	101.572075	100.761865	101.043939	108.091142	99.999860	102.365175	107.861072	96.450396	102.816037	109.500466	106.497296	100.410676	107.980373	106.014359	106.259837	101.957366	97.825758	101.293287
739.000000	97.310443	98.007413	109.671049	101.773566	106.985991	103.458858	94.981445	110.532541	96.852471	102.818368	96.003543	100.685291	98.449184	98.659021	96.120280	102.320443	97.562611	95.986993	103.906224	88.601748	100.073846	106.126527	104.760979	96.635548	106.744476	99.954802	104.063473	99.379301	95.123916	96.992238
740.000000	92.633124	93.505758	104.955198	99.657436	102.484336	95.152494	93.154406	104.465035	93.566480	101.362308	92.400956	97.717483	95.795198	98.154126	92.883730	97.989044	97.672541	93.809277	97.047855	86.842821	95.697646	100.637016	100.031259	89.623706	100.941399	96.449627	103.508415	96.362145	92.324779	94.928438
741.000000	91.659953	88.502541	99.918881	99.944219	94.749371	88.571935	93.380606	97.457879	94.174569	98.787226	91.275058	93.445245	91.438065	97.065408	90.172587	93.693287	95.462494	91.812214	89.464848	86.277949	92.637179	98.225944	94.350140	84.384755	97.555035	91.751911	101.012914	92.088252	90.772098	93.497413
742.000000	87.305804	82.123566	92.031702	99.024545	89.146154	84.972448	92.992168	93.151492	92.295268	95.006690	89.160606	90.601305	87.448275	92.165315	85.576294	86.746946	93.987902	89.197459	85.744918	86.141166	87.704103	92.858671	91.514942	83.545455	94.082145	85.964406	97.638112	87.553566	89.678042	93.841026
743.000000	83.372517	79.202937	86.663986	93.697203	83.766247	81.882774	91.196154	86.968811	89.216783	93.564592	86.726620	86.532284	84.660606	88.806037	80.996783	82.978718	90.821049	85.508462	86.231608	86.743543	84.739161	86.457459	87.016900	83.872191	89.551818	83.547483	91.109417	85.533357	85.656993	94.848648
744.000000	79.134312	77.894545	84.498601	86.729580	78.112308	76.629720	89.418368	82.451608	87.337156	88.235641	80.900676	83.194499	80.571399	84.442681	76.608788	77.793147	88.159604	83.492914	84.862984	85.429464	81.722448	81.581026	81.237506	82.652797	83.059977	80.052984	84.886737	84.102821	83.337879	91.666340
745.000000	75.356014	77.968508	80.378392	82.567739	77.263869	74.170000	87.287949	80.044545	84.699417	82.199138	77.458765	79.827692	78.710326	81.116597	77.719207	74.898834	84.628928	80.779184	84.702028	82.022960	76.391375	77.251119	75.789044	79.684639	78.862657	77.866690	76.018904	79.369417	78.668881	86.696084
746.000000	73.428275	77.681049	77.433963	75.501119	74.499068	71.433963	82.390047	77.936410	79.344242	77.481585	74.472657	76.274988	78.555618	77.052937	76.040000	74.202005	80.009883	74.035664	79.567739	79.544825	73.469441	77.370210	75.433543	78.771608	73.765851	75.710466	72.061725	75.702494	74.013357	80.766853
747.000000	71.351935	74.479301	71.860606	69.792308	72.363590	69.759580	79.301841	76.382005	76.101935	73.186667	73.249534	73.195058	76.266876	74.255688	74.725338	71.458695	76.138904	69.909464	75.486713	78.875455	71.879371	73.966970	74.866317	76.249883	68.475221	74.125455	68.137716	73.501329	70.990000	74.787576
748.000000	72.112681	71.588205	68.700629	65.597296	70.034406	67.569091	75.314615	73.485804	71.643170	68.419464	68.040093	70.299650	74.751958	68.973846	71.606177	68.199231	71.326084	65.146550	70.583660	76.066970	70.177389	69.802937	73.656084	73.312494	65.738392	73.807389	65.553124	70.936737	67.269301	66.733800
749.000000	69.433683	68.804825	69.985338	62.297855	69.630816	65.488298	71.491795	70.316131	68.375058	64.517483	64.532914	65.747949	73.617622	66.967273	67.625268	64.720629	68.425688	61.508741	66.437809	70.353450	68.749347	66.118485	69.453497	72.662005	64.234476	71.257016	65.234336	67.239138	63.417972	58.316597
750.000000	66.806503	65.695524	70.920862	57.923590	66.151772	60.043916	68.396923	64.054499	63.968368	62.363147	60.770723	63.011189	69.214079	65.637179	64.445851	62.549231	64.808555	62.555175	60.793310	67.703869	66.699347	63.243916	65.313450	69.798508	62.335944	69.755058	62.585478	63.651935	59.569790	51.167389
751.000000	65.985058	62.250676	68.469277	56.557786	63.177249	57.949417	66.707273	57.744918	60.306131	58.583403	58.572028	61.132890	62.035035	61.277436	61.343613	59.927692	60.360746	64.325641	56.302890	63.290839	63.154312	61.138159	61.282774	65.580350	61.778462	67.500373	60.078438	58.216597	56.704639	47.736410
752.000000	61.824755	59.257552	62.858182	54.186876	60.160536	56.628765	63.100769	55.443263	54.861329	55.049697	55.990093	58.034732	56.615291	57.195851	57.478671	56.855897	56.704359	63.014406	54.570420	61.402587	58.473193	57.141166	58.096270	61.080979	62.194312	64.438531	58.262448	56.234289	54.035571	49.410862
753.000000	58.395408	56.494709	61.114499	51.410256	56.725781	54.978182	59.340559	52.453869	53.752121	54.527855	53.980979	53.243030	52.271166	54.008974	53.257855	54.075012	53.460839	62.256317	52.602821	59.103124	53.863753	54.881958	55.935315	56.791865	59.446061	59.637483	57.535921	53.860326	53.543590	48.821585
754.000000	55.708182	54.751562	58.059674	49.259091	52.372657	51.910723	55.809091	52.079907	52.505967	50.098182	51.684755	50.237296	47.055408	51.213566	49.420606	51.458438	51.850746	61.708228	50.768182	56.092098	49.800886	53.836643	52.183403	53.001142	55.983077	53.545128	54.627716	52.743706	55.875524	47.735664
755.000000	53.847739	52.979487	54.529627	47.480886	51.608252	51.710093	51.819510	50.539744	51.043497	48.251655	50.579860	47.750490	45.507203	50.234685	49.108811	48.595198	52.106480	59.012145	49.585035	53.235641	45.425431	52.881492	51.144266	49.964779	52.726270	50.822821	51.959464	50.956760	57.504312	49.022541
756.000000	53.552448	50.118298	52.959720	45.559068	49.161422	51.994522	46.890699	48.621818	47.380746	46.261189	48.064802	46.358065	44.478625	47.280513	45.973100	45.286573	51.654476	52.859907	48.890886	52.775035	43.622424	52.895501	50.868508	48.277436	50.021748	48.971678	49.831678	47.707226	55.502424	48.467413
757.000000	52.066527	48.383240	46.042541	46.174685	46.580350	51.334639	42.563380	46.526876	46.086061	43.167646	46.603007	46.100373	42.810117	46.164592	44.700186	43.244965	48.376410	47.641935	50.362937	52.367156	41.486434	52.505711	50.231119	45.148765	46.974242	47.197949	45.764615	46.122564	53.496993	48.671119
758.000000	50.926177	46.884802	43.459184	44.639650	44.932424	49.176457	39.449441	44.432238	45.204242	41.812284	43.065688	45.924685	44.573660	43.261608	43.096550	40.149650	45.036154	42.303263	49.202960	49.226154	42.437133	51.180746	47.898438	44.601445	45.490303	44.604802	42.837879	43.800093	51.356270	49.198345
759.000000	47.598718	46.045478	42.406154	42.514476	43.515338	46.927156	37.245874	43.493030	41.725245	41.224452	39.655478	45.178578	44.297646	44.534988	40.727040	39.258392	43.203100	37.620140	47.515035	46.906830	44.184196	48.225152	44.850839	45.282611	43.203986	42.074895	40.778485	41.698322	48.428858	45.781329
760.000000	45.993054	45.168788	41.122867	39.972867	41.482261	44.499604	35.207879	41.522937	38.559977	39.873613	36.235291	43.277925	42.968555	42.694289	39.245221	38.225012	41.124872	35.145221	44.358928	42.987762	44.467925	47.396783	43.632611	43.915152	41.944172	40.015478	37.914685	39.144522	42.916970	42.592541
761.000000	43.220862	43.707949	38.914779	39.441911	39.553869	43.310117	33.592844	39.583450	36.028089	38.949744	36.086177	41.408834	39.954615	41.942005	36.272378	36.728695	37.321515	36.510023	41.603124	38.642051	41.357483	44.562517	41.869394	42.842448	42.168485	39.833077	35.322611	37.779720	37.578159	41.513450
762.000000	39.320699	42.398555	37.108904	38.367739	38.228695	40.888904	33.334709	39.643753	31.902401	37.532727	33.661935	39.391538	36.975921	41.247110	34.664895	37.711538	34.862354	36.437692	38.309814	34.439837	39.774499	41.121748	40.944452	41.046387	41.397925	39.131515	35.092331	36.513543	32.910070	39.201608
763.000000	37.316946	38.366084	36.659930	38.963916	36.994872	38.021259	32.312844	39.012914	30.869930	37.046480	32.959697	36.692960	34.354266	39.070862	32.876107	36.047483	32.386667	37.144266	34.927086	29.984545	37.641935	38.630093	39.705804	39.413776	39.135991	36.620093	35.417110	35.089767	33.014988	36.247506
764.000000	35.905152	36.068578	33.704452	38.630793	35.470932	34.414732	32.449907	38.710350	29.103636	35.200583	31.610047	34.890326	33.538275	38.037133	34.218928	35.997389	32.451049	36.178671	30.999580	26.265105	35.549114	37.069021	36.796760	36.034569	38.795991	36.575897	35.241725	34.161235	33.006993	33.772471
765.000000	34.564452	31.530163	31.490793	36.879720	34.748322	33.046760	32.161795	36.190373	27.023263	35.289977	31.129883	33.330699	32.743357	36.609044	35.717832	35.420350	34.215385	36.802448	27.803566	26.056084	33.090350	34.258159	36.435198	33.941352	37.520653	35.632331	35.373683	33.450559	34.742960	32.670047
766.000000	33.261422	28.469790	30.904825	36.243147	32.579557	30.786737	31.672354	34.211329	25.354872	33.536993	30.025361	31.221585	31.298275	33.394079	34.014592	33.475501	35.065571	35.975688	25.992168	26.062145	32.865641	32.106480	35.067063	32.389371	36.506783	34.583776	34.123683	32.586340	33.524103	30.904918
767.000000	30.651818	25.999231	28.234918	35.139604	30.683007	29.505524	30.711888	31.724732	27.779138	31.689044	29.556597	29.885455	31.215944	32.485688	33.392098	32.283170	34.762657	35.055524	24.972028	27.209674	31.849138	30.412448	32.771678	29.890420	34.702261	33.165711	33.602611	31.026131	33.308089	30.655431
768.000000	28.020816	22.845921	27.214452	31.988928	27.922051	28.828881	30.031515	30.898392	29.033823	31.199860	28.136154	28.931748	31.153939	31.580466	32.875851	30.145221	32.765781	31.169720	26.601981	28.003170	32.009324	29.261305	29.980466	27.739487	33.038462	32.476503	32.893124	29.700862	32.253566	31.143986
769.000000	25.506387	21.394615	25.990886	28.661911	27.756131	29.074359	28.359068	28.851678	27.336760	29.914056	26.259557	26.967855	29.525012	31.176131	31.437389	28.218089	31.172867	28.466737	27.458881	29.128881	31.984732	27.450606	27.439534	26.524172	30.534988	33.135245	32.474336	28.964522	29.870606	30.227133
770.000000	25.118485	20.574103	25.883566	25.141469	25.798578	29.523450	27.203030	27.037576	29.228205	27.233054	25.626457	24.059814	28.003939	28.667040	29.043380	25.865245	30.146970	26.501026	26.880280	30.637576	30.714592	28.361305	24.401492	25.554779	27.823217	32.548112	29.074126	27.861212	25.419394	28.608531
771.000000	25.032844	21.830140	25.055291	23.556154	23.768718	28.962051	23.893147	23.977016	30.754709	26.630233	26.652331	23.666317	26.328904	27.313263	25.153357	24.385035	27.534685	26.840676	24.945501	30.729044	28.574848	27.450280	22.794499	26.558741	27.054545	32.851259	26.591445	25.936364	22.000350	27.045175
772.000000	23.302308	21.937925	24.100420	21.736573	22.451562	26.970396	22.084545	22.259953	28.746876	26.220839	25.433613	23.289977	25.095361	25.913660	22.291678	23.156107	25.389604	25.065781	24.328508	29.777319	27.699837	27.922261	22.741049	26.703427	25.860746	31.965035	24.191725	23.922191	19.590140	24.014289
773.000000	21.669627	21.644499	23.100816	21.190396	21.938228	24.970000	20.994545	22.178998	25.827273	24.686830	24.999977	23.077226	23.419627	24.377972	20.237925	20.301935	22.578811	22.267459	25.105035	27.707925	26.759277	27.207552	21.977786	26.334988	25.198695	30.334359	24.384382	21.711632	20.152727	21.001981
774.000000	19.898881	21.560816	21.688415	19.788065	20.602028	22.947599	20.477576	23.753100	24.198322	23.993846	23.295035	22.778415	22.240793	22.122984	19.861841	20.698765	21.927902	19.806443	23.931235	25.171189	23.950653	24.703566	21.328951	25.634709	24.174312	27.909487	22.862331	20.737646	19.838065	19.806061
775.000000	17.279837	20.368788	20.827995	19.973939	19.898205	20.928718	19.301678	23.528788	23.514755	23.161375	21.318298	22.442564	21.172890	20.881329	18.105385	20.963869	22.359953	18.542678	21.732727	23.189883	22.237692	22.060536	22.594802	25.700699	21.778159	24.623753	21.920093	21.360466	20.771329	17.554779
776.000000	15.934219	21.343193	20.626247	21.456769	19.213781	18.209231	18.523007	24.322774	22.153310	21.888508	20.796247	21.470909	20.984196	17.824988	17.040140	20.552937	22.435944	17.175907	20.156061	19.506527	20.103030	20.495618	21.761888	24.961655	20.664406	21.513776	21.718531	22.230816	19.438182	17.420862
777.000000	14.360699	21.709114	19.633916	22.128098	17.786834	18.513333	17.331538	22.806131	21.850210	21.098345	20.260168	21.900769	21.148485	18.074499	17.209068	19.216014	22.030140	15.674636	20.051981	18.165664	18.889231	17.780443	20.692517	23.443613	19.742471	19.076364	22.860023	21.530186	18.954359	17.795711
778.000000	13.208555	20.461725	18.485711	21.922830	16.271636	18.605431	17.117366	23.380466	20.704126	19.420163	17.989632	20.913380	20.131282	18.789091	17.800536	19.026410	21.007576	13.488723	21.883869	15.425618	17.570210	16.121678	20.957669	21.452075	19.651002	17.885035	22.647389	22.131212	19.670210	17.398345
779.000000	13.477413	19.343497	18.894653	19.979450	16.731869	18.080862	16.317203	22.297552	18.015594	18.212121	16.876858	18.733310	19.818998	17.957855	19.087879	16.935315	19.850653	12.831147	21.111865	14.715338	18.627249	15.207534	19.833054	19.488322	19.423869	18.398611	21.142774	22.653566	19.694942	17.680746
780.000000	15.402564	18.127366	17.685981	18.256769	16.358839	18.584172	16.207040	22.344709	17.635455	16.369021	15.959212	17.128182	18.844872	17.607995	18.988368	16.216643	19.029254	12.356681	19.678182	15.734615	18.970000	15.289830	18.380326	19.535245	18.523986	16.927154	18.604592	21.205175	19.693217	17.684639
781.000000	17.020280	18.796946	16.414047	16.488774	16.422765	18.642401	14.996783	19.874406	18.315049	15.094266	15.367650	17.317249	19.179790	17.145828	17.668858	15.779021	17.994266	12.410375	18.409800	16.333622	18.107296	14.836974	18.820513	19.561888	19.454522	16.606350	18.324359	19.764965	19.833613	18.011352
782.000000	16.698904	18.410186	15.538755	15.594019	15.258697	17.836900	14.355408	18.320932	16.863510	13.909697	15.599422	17.308625	19.109650	17.387343	16.797972	15.184219	16.265105	11.218662	17.855452	17.222259	17.837389	14.982953	18.301772	18.198112	20.640839	16.764846	16.401049	18.345035	19.238741	16.473473
783.000000	15.966527	18.207832	14.611436	15.627944	14.822112	16.498124	14.708298	19.324965	15.727590	12.896270	14.998350	18.255291	17.651585	16.492587	15.426317	15.413473	15.529441	11.651145	18.629473	16.749497	18.794476	14.451660	17.426503	15.704312	21.255944	15.620918	16.769184	16.446993	18.425082	15.673473
784.000000	15.905198	16.726807	13.521133	14.172615	14.859746	14.673403	14.547389	20.773837	15.250900	12.381422	14.111240	17.437925	16.659883	16.589744	14.698159	16.580769	16.459720	12.263510	17.063284	16.412212	18.977249	13.385168	16.926713	15.314685	20.335944	14.695802	14.799441	17.253720	16.975058	16.210746
785.000000	14.849417	17.874601	12.258312	14.441030	15.828639	13.103396	14.125688	18.898685	16.115422	12.486224	13.227557	16.885315	16.869604	17.515082	14.247338	16.650513	17.243869	12.684807	16.253166	15.840942	18.883347	14.580238	17.758448	14.718751	19.009510	16.341315	13.938322	16.337345	16.346037	16.137305
786.000000	15.090676	18.673238	12.140503	14.290657	15.845573	11.499900	14.559138	17.930737	16.600037	12.901690	14.319841	16.095082	17.315431	16.450536	13.780156	15.852005	18.363315	13.016438	14.070252	15.708925	16.602904	16.332114	16.376909	12.050697	17.052821	16.822221	14.285464	14.743068	14.877436	16.496117
787.000000	14.293427	18.812629	13.220573	12.466615	14.671035	11.728431	14.959897	15.075935	17.761203	12.956970	15.582009	15.962751	16.578275	17.381119	13.539883	14.966550	17.949909	14.181380	12.457828	15.317702	16.584256	16.717883	15.283949	11.997166	15.205967	15.924214	14.852993	13.167765	15.000233	15.844322
788.000000	13.198601	16.730100	12.074897	12.335450	14.585825	11.965904	15.035748	14.161133	18.465538	12.140851	15.150347	14.704219	15.300839	17.292890	11.734079	14.016830	17.097497	14.893408	12.237501	15.471914	16.832228	17.936963	14.725464	12.564986	14.871352	15.101196	14.891152	13.187170	15.955035	14.043669
789.000000	13.573380	13.937152	11.640037	10.703026	15.463296	11.353995	14.264163	13.335772	18.199921	13.572704	14.961653	13.952331	14.253403	16.380760	10.443497	12.926876	15.333103	15.109112	11.606779	15.695364	17.647986	19.239492	13.564555	12.584904	14.917711	15.678667	14.989758	12.911121	16.542914	14.699096
790.000000	13.752284	13.282641	10.354697	10.408760	15.756240	11.442601	13.001809	13.681044	17.696774	12.645256	13.334065	13.668480	13.440769	14.397438	9.106247	12.210084	12.770107	16.295417	12.526709	16.959629	16.301226	19.655972	12.644124	15.164310	14.207396	14.245487	14.900998	12.099268	15.711527	15.331469
791.000000	13.807879	13.526009	10.921795	10.800415	15.963063	11.029103	12.409501	11.498807	18.732811	12.204779	11.679368	13.485963	13.515711	12.594839	8.789091	10.938336	11.780655	16.280210	13.562186	16.435131	14.403068	19.351075	11.604671	16.010837	14.574168	13.156303	14.676942	13.091634	14.522424	14.274883
792.000000	12.543217	13.260963	11.988739	12.944005	13.004909	9.641026	11.868476	11.011091	17.314009	11.490175	11.018914	13.555007	13.138928	11.250888	9.437179	11.839515	11.208242	16.367273	13.205918	15.616471	12.942205	18.039431	10.681890	15.512305	14.392548	12.839147	13.681016	13.787375	14.027797	12.303170
793.000000	12.525641	13.767166	12.179282	14.502839	11.323086	8.507436	12.809152	11.406949	16.197110	11.373534	10.997149	13.239483	12.245385	9.979664	10.417035	12.334709	12.465737	16.959184	13.788751	12.644000	12.868406	16.681527	9.950597	15.956762	14.780205	11.945231	12.607301	13.340406	13.004196	12.664730
794.000000	12.424254	13.690676	11.887161	15.126033	10.333427	8.063077	13.134667	11.536541	14.532280	10.516179	10.561783	11.268841	11.043147	11.528002	11.263131	11.657389	12.996389	17.221422	14.054193	11.659105	13.136145	14.437091	10.232916	16.333769	14.855718	11.682224	11.132946	12.905044	13.105117	12.354263
795.000000	11.836900	13.331310	12.056462	14.858455	8.831133	8.622695	13.022191	10.080256	13.614121	11.124182	9.385571	11.348270	12.307576	11.587490	12.482140	11.193916	12.853266	17.080559	14.841604	12.116075	13.273026	12.569329	11.707170	15.623245	14.432396	13.381781	9.021723	11.331476	13.952331	12.212608
796.000000	11.084918	11.375268	12.163317	14.076361	7.328795	9.376005	13.716191	9.271221	12.963455	10.655424	9.904977	10.990904	12.791841	11.984620	13.498217	10.694061	13.522681	15.404452	14.192711	13.101198	12.454214	9.797049	11.881776	13.730492	13.641753	13.414821	8.023664	9.665413	14.877086	11.029697
797.000000	10.584953	9.283058	11.964184	12.767795	6.020851	10.138057	13.713960	8.505015	12.559818	10.095879	10.613106	10.893737	13.668869	12.213361	14.411357	10.421166	14.276611	13.714277	13.299529	14.248009	11.564075	8.011601	12.278678	11.666226	12.780110	13.281646	7.848028	8.870486	15.411737	10.238823
798.000000	10.540128	7.458993	11.342767	10.959100	5.017030	10.684970	12.549524	7.812699	12.437394	9.512576	11.332252	11.128492	15.032028	12.118967	15.178559	10.529338	15.068879	12.424079	12.298235	15.251702	10.723119	7.954811	13.087079	9.739620	11.948455	13.031016	8.778107	9.543455	15.185280	10.248618
799.000000	11.153566	6.307385	10.182769	8.676622	4.427063	10.792860	9.756909	7.225336	12.630364	8.972545	11.884706	11.766895	16.974685	11.546692	15.756825	11.172685	15.853308	11.947902	11.325007	15.807469	10.051860	10.368503	14.496182	8.259846	11.247776	12.711692	11.097196	12.281077	13.826713	11.467713
800.000000	12.628392	6.232545	8.367895	5.946706	4.360678	10.237846	4.870140	6.773986	13.172909	8.542818	12.092762	12.880671	19.590210	10.341790	16.103154	12.505315	16.583720	12.699790	10.516021	15.610503	9.670811	15.994503	16.695189	7.536077	10.779063	12.372434	15.088587	17.680112	10.965035	14.304741
